#flipflop between high and low with a delay of 100us between changes
#timebase=800000000(ps)
,#voltbase=5000000(mv/100)
#size=4064
4.00E-06,4.600
8.00E-06,4.600
1.20E-05,4.400
1.60E-05,5.200
2.00E-05,4.600
2.40E-05,4.800
2.80E-05,-0.400
3.20E-05,-0.600
3.60E-05,-0.200
4.00E-05,-0.200
4.40E-05,-0.600
4.80E-05,0.200
5.20E-05,-0.200
5.60E-05,0.200
6.00E-05,0.000
6.40E-05,-0.400
6.80E-05,-0.400
7.20E-05,-0.200
7.60E-05,-0.400
8.00E-05,-0.200
8.40E-05,-0.200
8.80E-05,-0.400
9.20E-05,-0.400
9.60E-05,-0.200
1.00E-04,-0.400
1.04E-04,-0.400
1.08E-04,-0.200
1.12E-04,-0.200
1.16E-04,-0.200
1.20E-04,0.000
1.24E-04,0.000
1.28E-04,5.000
1.32E-04,4.600
1.36E-04,4.600
1.40E-04,4.600
1.44E-04,4.400
1.48E-04,4.600
1.52E-04,4.600
1.56E-04,4.800
1.60E-04,4.800
1.64E-04,5.000
1.68E-04,5.000
1.72E-04,5.000
1.76E-04,5.000
1.80E-04,5.000
1.84E-04,4.800
1.88E-04,5.000
1.92E-04,4.800
1.96E-04,5.000
2.00E-04,4.600
2.04E-04,4.800
2.08E-04,4.600
2.12E-04,4.600
2.16E-04,4.600
2.20E-04,4.200
2.24E-04,4.800
2.28E-04,4.400
2.32E-04,0.000
2.36E-04,-0.200
2.40E-04,-0.400
2.44E-04,0.000
2.48E-04,-0.200
2.52E-04,0.000
2.56E-04,-0.400
2.60E-04,-0.400
2.64E-04,-0.400
2.68E-04,-0.200
2.72E-04,-0.200
2.76E-04,0.000
2.80E-04,-0.400
2.84E-04,-0.200
2.88E-04,-0.400
2.92E-04,-0.400
2.96E-04,-0.200
3.00E-04,-0.200
3.04E-04,0.200
3.08E-04,0.200
3.12E-04,0.000
3.16E-04,-0.200
3.20E-04,-0.200
3.24E-04,-0.400
3.28E-04,0.000
3.32E-04,-0.200
3.36E-04,4.600
3.40E-04,4.400
3.44E-04,4.800
3.48E-04,4.800
3.52E-04,4.600
3.56E-04,4.800
3.60E-04,4.600
3.64E-04,4.600
3.68E-04,4.800
3.72E-04,4.600
3.76E-04,4.600
3.80E-04,4.400
3.84E-04,4.600
3.88E-04,4.600
3.92E-04,4.600
3.96E-04,4.600
4.00E-04,4.800
4.04E-04,4.800
4.08E-04,5.000
4.12E-04,5.000
4.16E-04,4.800
4.20E-04,4.600
4.24E-04,4.600
4.28E-04,4.600
4.32E-04,4.600
4.36E-04,4.600
4.40E-04,-0.200
4.44E-04,-0.200
4.48E-04,-0.200
4.52E-04,0.000
4.56E-04,0.000
4.60E-04,-0.200
4.64E-04,0.000
4.68E-04,-0.400
4.72E-04,-0.400
4.76E-04,-0.400
4.80E-04,-0.400
4.84E-04,-0.200
4.88E-04,-0.200
4.92E-04,-0.200
4.96E-04,-0.400
5.00E-04,-0.600
5.04E-04,-0.400
5.08E-04,0.000
5.12E-04,-0.200
5.16E-04,-0.200
5.20E-04,-0.200
5.24E-04,0.000
5.28E-04,-0.200
5.32E-04,-0.200
5.36E-04,0.000
5.40E-04,4.600
5.44E-04,4.600
5.48E-04,4.800
5.52E-04,4.600
5.56E-04,5.000
5.60E-04,4.800
5.64E-04,4.800
5.68E-04,4.600
5.72E-04,4.400
5.76E-04,5.000
5.80E-04,5.000
5.84E-04,5.200
5.88E-04,4.800
5.92E-04,4.800
5.96E-04,5.000
6.00E-04,5.000
6.04E-04,4.600
6.08E-04,4.400
6.12E-04,4.600
6.16E-04,4.600
6.20E-04,4.600
6.24E-04,4.800
6.28E-04,4.800
6.32E-04,4.600
6.36E-04,4.400
6.40E-04,4.600
6.44E-04,4.600
6.48E-04,4.800
6.52E-04,-0.600
6.56E-04,0.200
6.60E-04,0.200
6.64E-04,-0.200
6.68E-04,-0.400
6.72E-04,-0.400
6.76E-04,0.200
6.80E-04,-0.400
6.84E-04,-0.400
6.88E-04,-0.200
6.92E-04,0.000
6.96E-04,0.000
7.00E-04,0.000
7.04E-04,-0.400
7.08E-04,-0.400
7.12E-04,0.000
7.16E-04,-0.200
7.20E-04,-0.400
7.24E-04,0.000
7.28E-04,0.200
7.32E-04,-0.200
7.36E-04,-0.200
7.40E-04,0.000
7.44E-04,-0.400
7.48E-04,-0.200
7.52E-04,4.800
7.56E-04,4.400
7.60E-04,5.000
7.64E-04,5.000
7.68E-04,4.400
7.72E-04,4.800
7.76E-04,4.400
7.80E-04,4.600
7.84E-04,4.600
7.88E-04,4.800
7.92E-04,4.400
7.96E-04,4.800
8.00E-04,4.600
8.04E-04,4.600
8.08E-04,4.600
8.12E-04,4.800
8.16E-04,4.600
8.20E-04,4.800
8.24E-04,4.600
8.28E-04,4.600
8.32E-04,5.000
8.36E-04,4.800
8.40E-04,5.000
8.44E-04,4.600
8.48E-04,4.800
8.52E-04,4.800
8.56E-04,-0.600
8.60E-04,-0.600
8.64E-04,-0.400
8.68E-04,-0.200
8.72E-04,-0.200
8.76E-04,0.200
8.80E-04,0.000
8.84E-04,0.200
8.88E-04,-0.400
8.92E-04,-0.200
8.96E-04,0.000
9.00E-04,0.200
9.04E-04,0.000
9.08E-04,0.200
9.12E-04,0.200
9.16E-04,0.000
9.20E-04,-0.200
9.24E-04,-0.400
9.28E-04,-0.200
9.32E-04,-0.200
9.36E-04,-0.400
9.40E-04,-0.200
9.44E-04,-0.200
9.48E-04,-0.400
9.52E-04,-0.400
9.56E-04,-0.200
9.60E-04,4.600
9.64E-04,4.600
9.68E-04,4.800
9.72E-04,4.600
9.76E-04,4.800
9.80E-04,4.800
9.84E-04,4.600
9.88E-04,4.600
9.92E-04,4.600
9.96E-04,4.600
1.00E-03,4.600
1.00E-03,4.600
1.01E-03,4.800
1.01E-03,4.800
1.02E-03,4.600
1.02E-03,4.600
1.02E-03,4.600
1.03E-03,4.400
1.03E-03,4.600
1.04E-03,4.600
1.04E-03,4.800
1.04E-03,4.600
1.05E-03,4.600
1.05E-03,5.000
1.06E-03,4.800
1.06E-03,5.000
1.06E-03,0.200
1.07E-03,0.200
1.07E-03,0.200
1.08E-03,-0.200
1.08E-03,-0.400
1.08E-03,0.000
1.09E-03,0.200
1.09E-03,-0.200
1.10E-03,-0.200
1.10E-03,0.000
1.10E-03,-0.200
1.11E-03,-0.600
1.11E-03,-0.200
1.12E-03,-0.400
1.12E-03,0.000
1.12E-03,-0.200
1.13E-03,-0.400
1.13E-03,0.000
1.14E-03,0.200
1.14E-03,0.200
1.14E-03,-0.200
1.15E-03,0.000
1.15E-03,0.000
1.16E-03,-0.400
1.16E-03,0.000
1.16E-03,4.200
1.17E-03,4.600
1.17E-03,4.400
1.18E-03,4.600
1.18E-03,4.600
1.18E-03,4.200
1.19E-03,4.400
1.19E-03,4.800
1.20E-03,4.400
1.20E-03,5.200
1.20E-03,4.600
1.21E-03,4.600
1.21E-03,4.600
1.22E-03,4.600
1.22E-03,4.400
1.22E-03,4.600
1.23E-03,4.800
1.23E-03,4.600
1.24E-03,4.600
1.24E-03,4.800
1.24E-03,4.600
1.25E-03,4.600
1.25E-03,5.000
1.26E-03,4.600
1.26E-03,4.800
1.26E-03,4.400
1.27E-03,-0.200
1.27E-03,-0.200
1.28E-03,-0.200
1.28E-03,-0.400
1.28E-03,-0.200
1.29E-03,-0.200
1.29E-03,-0.400
1.30E-03,-0.400
1.30E-03,-0.200
1.30E-03,0.000
1.31E-03,-0.200
1.31E-03,-0.200
1.32E-03,0.000
1.32E-03,-0.200
1.32E-03,-0.200
1.33E-03,0.000
1.33E-03,0.000
1.34E-03,-0.200
1.34E-03,0.200
1.34E-03,-0.200
1.35E-03,-0.200
1.35E-03,-0.400
1.36E-03,-0.400
1.36E-03,-0.400
1.36E-03,-0.200
1.37E-03,-0.200
1.37E-03,4.800
1.38E-03,5.000
1.38E-03,5.000
1.38E-03,4.400
1.39E-03,4.800
1.39E-03,5.000
1.40E-03,4.600
1.40E-03,4.800
1.40E-03,4.600
1.41E-03,4.600
1.41E-03,4.400
1.42E-03,4.800
1.42E-03,4.600
1.42E-03,5.000
1.43E-03,4.800
1.43E-03,4.600
1.44E-03,4.600
1.44E-03,4.600
1.44E-03,4.800
1.45E-03,4.600
1.45E-03,5.000
1.46E-03,5.000
1.46E-03,5.000
1.46E-03,4.800
1.47E-03,4.800
1.47E-03,4.600
1.48E-03,-0.200
1.48E-03,0.000
1.48E-03,-0.200
1.49E-03,0.200
1.49E-03,-0.200
1.50E-03,0.000
1.50E-03,0.000
1.50E-03,-0.200
1.51E-03,-0.200
1.51E-03,-0.200
1.52E-03,-0.200
1.52E-03,-0.200
1.52E-03,-0.200
1.53E-03,-0.200
1.53E-03,0.000
1.54E-03,0.000
1.54E-03,0.000
1.54E-03,-0.400
1.55E-03,-0.400
1.55E-03,-0.200
1.56E-03,-0.200
1.56E-03,-0.200
1.56E-03,-0.200
1.57E-03,0.000
1.57E-03,0.000
1.58E-03,4.600
1.58E-03,4.800
1.58E-03,4.800
1.59E-03,4.800
1.59E-03,4.400
1.60E-03,4.600
1.60E-03,4.600
1.60E-03,4.600
1.61E-03,4.800
1.61E-03,4.400
1.62E-03,4.800
1.62E-03,4.800
1.62E-03,4.800
1.63E-03,5.000
1.63E-03,5.200
1.64E-03,4.600
1.64E-03,4.600
1.64E-03,4.800
1.65E-03,4.600
1.65E-03,4.600
1.66E-03,4.600
1.66E-03,4.600
1.66E-03,4.600
1.67E-03,4.600
1.67E-03,4.800
1.68E-03,4.600
1.68E-03,4.600
1.68E-03,4.800
1.69E-03,0.000
1.69E-03,0.000
1.70E-03,0.200
1.70E-03,0.200
1.70E-03,-0.200
1.71E-03,-0.200
1.71E-03,-0.200
1.72E-03,-0.200
1.72E-03,-0.200
1.72E-03,-0.400
1.73E-03,0.000
1.73E-03,0.000
1.74E-03,-0.400
1.74E-03,-0.200
1.74E-03,-0.200
1.75E-03,-0.200
1.75E-03,-0.200
1.76E-03,0.000
1.76E-03,-0.400
1.76E-03,0.000
1.77E-03,-0.200
1.77E-03,-0.400
1.78E-03,-0.200
1.78E-03,-0.200
1.78E-03,-0.200
1.79E-03,4.400
1.79E-03,4.600
1.80E-03,4.400
1.80E-03,4.600
1.80E-03,4.600
1.81E-03,4.800
1.81E-03,4.600
1.82E-03,4.600
1.82E-03,4.600
1.82E-03,4.600
1.83E-03,4.600
1.83E-03,4.400
1.84E-03,4.400
1.84E-03,5.200
1.84E-03,4.600
1.85E-03,4.600
1.85E-03,4.800
1.86E-03,4.600
1.86E-03,4.600
1.86E-03,4.800
1.87E-03,4.600
1.87E-03,4.600
1.88E-03,4.400
1.88E-03,4.800
1.88E-03,5.000
1.89E-03,4.600
1.89E-03,0.200
1.90E-03,-0.400
1.90E-03,0.000
1.90E-03,-0.400
1.91E-03,-0.400
1.91E-03,0.000
1.92E-03,0.200
1.92E-03,-0.200
1.92E-03,-0.200
1.93E-03,0.000
1.93E-03,-0.200
1.94E-03,-0.200
1.94E-03,0.200
1.94E-03,-0.200
1.95E-03,0.000
1.95E-03,-0.200
1.96E-03,-0.200
1.96E-03,0.000
1.96E-03,-0.200
1.97E-03,-0.200
1.97E-03,-0.400
1.98E-03,0.000
1.98E-03,-0.400
1.98E-03,-0.400
1.99E-03,-0.200
1.99E-03,-0.200
2.00E-03,4.600
2.00E-03,4.600
2.00E-03,4.600
2.01E-03,4.800
2.01E-03,4.400
2.02E-03,4.800
2.02E-03,4.600
2.02E-03,4.600
2.03E-03,4.600
2.03E-03,4.800
2.04E-03,4.600
2.04E-03,4.400
2.04E-03,4.800
2.05E-03,4.600
2.05E-03,4.600
2.06E-03,4.400
2.06E-03,4.400
2.06E-03,5.000
2.07E-03,4.600
2.07E-03,4.800
2.08E-03,4.800
2.08E-03,4.600
2.08E-03,4.600
2.09E-03,4.600
2.09E-03,4.800
2.10E-03,4.600
2.10E-03,0.000
2.10E-03,-0.200
2.11E-03,-0.400
2.11E-03,0.000
2.12E-03,-0.200
2.12E-03,-0.200
2.12E-03,0.200
2.13E-03,-0.400
2.13E-03,0.000
2.14E-03,0.400
2.14E-03,-0.200
2.14E-03,0.000
2.15E-03,0.000
2.15E-03,-0.400
2.16E-03,-0.200
2.16E-03,0.000
2.16E-03,-0.200
2.17E-03,-0.400
2.17E-03,-0.200
2.18E-03,-0.200
2.18E-03,0.000
2.18E-03,-0.400
2.19E-03,0.000
2.19E-03,-0.200
2.20E-03,-0.400
2.20E-03,4.800
2.20E-03,4.600
2.21E-03,4.600
2.21E-03,4.600
2.22E-03,4.600
2.22E-03,4.600
2.22E-03,4.600
2.23E-03,4.600
2.23E-03,5.000
2.24E-03,4.600
2.24E-03,4.600
2.24E-03,4.800
2.25E-03,4.800
2.25E-03,4.600
2.26E-03,4.600
2.26E-03,4.600
2.26E-03,5.000
2.27E-03,4.600
2.27E-03,4.600
2.28E-03,4.600
2.28E-03,4.400
2.28E-03,4.800
2.29E-03,5.000
2.29E-03,4.600
2.30E-03,4.600
2.30E-03,4.800
2.30E-03,-0.200
2.31E-03,-0.400
2.31E-03,0.000
2.32E-03,0.000
2.32E-03,0.000
2.32E-03,0.000
2.33E-03,0.000
2.33E-03,0.000
2.34E-03,0.000
2.34E-03,-0.200
2.34E-03,-0.400
2.35E-03,-0.200
2.35E-03,0.000
2.36E-03,-0.200
2.36E-03,0.000
2.36E-03,0.000
2.37E-03,0.000
2.37E-03,-0.400
2.38E-03,-0.400
2.38E-03,-0.400
2.38E-03,-0.400
2.39E-03,-0.200
2.39E-03,-0.400
2.40E-03,-0.400
2.40E-03,-0.400
2.40E-03,-0.400
2.41E-03,4.600
2.41E-03,4.600
2.42E-03,4.600
2.42E-03,4.600
2.42E-03,4.800
2.43E-03,4.800
2.43E-03,4.400
2.44E-03,4.600
2.44E-03,5.000
2.44E-03,4.800
2.45E-03,4.600
2.45E-03,4.400
2.46E-03,4.400
2.46E-03,4.600
2.46E-03,4.400
2.47E-03,4.600
2.47E-03,4.800
2.48E-03,4.800
2.48E-03,4.800
2.48E-03,4.800
2.49E-03,4.600
2.49E-03,4.600
2.50E-03,4.800
2.50E-03,4.600
2.50E-03,4.600
2.51E-03,4.600
2.51E-03,-0.200
2.52E-03,0.200
2.52E-03,-0.400
2.52E-03,0.000
2.53E-03,-0.200
2.53E-03,-0.400
2.54E-03,-0.600
2.54E-03,-0.200
2.54E-03,-0.200
2.55E-03,-0.200
2.55E-03,-0.400
2.56E-03,-0.400
2.56E-03,0.000
2.56E-03,-0.200
2.57E-03,-0.200
2.57E-03,-0.400
2.58E-03,-0.200
2.58E-03,-0.400
2.58E-03,-0.200
2.59E-03,-0.200
2.59E-03,0.000
2.60E-03,-0.400
2.60E-03,-0.400
2.60E-03,0.200
2.61E-03,0.000
2.61E-03,-0.400
2.62E-03,0.000
2.62E-03,4.600
2.62E-03,4.400
2.63E-03,4.400
2.63E-03,4.400
2.64E-03,4.800
2.64E-03,4.800
2.64E-03,4.800
2.65E-03,4.600
2.65E-03,4.600
2.66E-03,4.600
2.66E-03,4.200
2.66E-03,4.600
2.67E-03,4.600
2.67E-03,4.600
2.68E-03,4.600
2.68E-03,4.400
2.68E-03,4.800
2.69E-03,4.800
2.69E-03,4.800
2.70E-03,4.600
2.70E-03,4.400
2.70E-03,5.200
2.71E-03,4.600
2.71E-03,4.800
2.72E-03,4.800
2.72E-03,4.800
2.72E-03,-0.200
2.73E-03,-0.200
2.73E-03,0.000
2.74E-03,-0.200
2.74E-03,-0.200
2.74E-03,0.000
2.75E-03,-0.200
2.75E-03,-0.200
2.76E-03,0.000
2.76E-03,0.200
2.76E-03,0.000
2.77E-03,0.200
2.77E-03,-0.600
2.78E-03,-0.400
2.78E-03,-0.200
2.78E-03,-0.400
2.79E-03,-0.200
2.79E-03,-0.200
2.80E-03,-0.400
2.80E-03,-0.200
2.80E-03,0.000
2.81E-03,-0.200
2.81E-03,-0.400
2.82E-03,0.000
2.82E-03,-0.200
2.82E-03,0.000
2.83E-03,4.200
2.83E-03,4.600
2.84E-03,4.800
2.84E-03,5.000
2.84E-03,5.200
2.85E-03,5.000
2.85E-03,4.800
2.86E-03,4.800
2.86E-03,5.000
2.86E-03,4.800
2.87E-03,4.600
2.87E-03,4.800
2.88E-03,4.800
2.88E-03,4.600
2.88E-03,4.600
2.89E-03,4.600
2.89E-03,4.600
2.90E-03,4.600
2.90E-03,4.400
2.90E-03,4.400
2.91E-03,4.800
2.91E-03,4.800
2.92E-03,4.400
2.92E-03,4.400
2.92E-03,4.800
2.93E-03,-0.200
2.93E-03,-0.400
2.94E-03,-0.400
2.94E-03,0.000
2.94E-03,-0.200
2.95E-03,-0.400
2.95E-03,-0.400
2.96E-03,-0.200
2.96E-03,-0.200
2.96E-03,-0.400
2.97E-03,-0.400
2.97E-03,-0.400
2.98E-03,-0.200
2.98E-03,-0.200
2.98E-03,0.000
2.99E-03,0.000
2.99E-03,0.000
3.00E-03,-0.200
3.00E-03,-0.200
3.00E-03,-0.200
3.01E-03,0.000
3.01E-03,-0.200
3.02E-03,-0.400
3.02E-03,-0.200
3.02E-03,-0.200
3.03E-03,-0.200
3.03E-03,4.600
3.04E-03,4.600
3.04E-03,4.600
3.04E-03,4.600
3.05E-03,4.800
3.05E-03,4.600
3.06E-03,4.800
3.06E-03,4.400
3.06E-03,4.400
3.07E-03,4.800
3.07E-03,4.600
3.08E-03,4.400
3.08E-03,4.400
3.08E-03,4.600
3.09E-03,4.600
3.09E-03,4.800
3.10E-03,4.600
3.10E-03,4.600
3.10E-03,4.600
3.11E-03,4.800
3.11E-03,4.600
3.12E-03,4.800
3.12E-03,4.800
3.12E-03,4.600
3.13E-03,4.800
3.13E-03,4.800
3.14E-03,0.000
3.14E-03,-0.200
3.14E-03,-0.200
3.15E-03,-0.400
3.15E-03,-0.400
3.16E-03,-0.200
3.16E-03,-0.200
3.16E-03,-0.400
3.17E-03,0.000
3.17E-03,-0.400
3.18E-03,0.000
3.18E-03,-0.200
3.18E-03,-0.400
3.19E-03,-0.400
3.19E-03,0.000
3.20E-03,0.200
3.20E-03,0.000
3.20E-03,-0.400
3.21E-03,-0.200
3.21E-03,0.000
3.22E-03,0.000
3.22E-03,0.000
3.22E-03,0.000
3.23E-03,-0.200
3.23E-03,-0.200
3.24E-03,-0.400
3.24E-03,4.600
3.24E-03,4.800
3.25E-03,4.600
3.25E-03,4.800
3.26E-03,4.400
3.26E-03,4.400
3.26E-03,4.400
3.27E-03,4.600
3.27E-03,4.800
3.28E-03,4.600
3.28E-03,4.600
3.28E-03,4.800
3.29E-03,4.400
3.29E-03,4.800
3.30E-03,4.600
3.30E-03,5.000
3.30E-03,5.000
3.31E-03,4.800
3.31E-03,4.600
3.32E-03,4.600
3.32E-03,5.000
3.32E-03,4.800
3.33E-03,4.600
3.33E-03,4.600
3.34E-03,4.800
3.34E-03,-0.200
3.34E-03,0.000
3.35E-03,0.000
3.35E-03,0.000
3.36E-03,0.200
3.36E-03,-0.400
3.36E-03,-0.400
3.37E-03,-0.200
3.37E-03,-0.600
3.38E-03,0.200
3.38E-03,-0.400
3.38E-03,-0.200
3.39E-03,-0.400
3.39E-03,0.000
3.40E-03,-0.200
3.40E-03,-0.200
3.40E-03,0.000
3.41E-03,0.000
3.41E-03,-0.400
3.42E-03,0.000
3.42E-03,-0.200
3.42E-03,-0.400
3.43E-03,0.000
3.43E-03,0.000
3.44E-03,-0.200
3.44E-03,-0.400
3.44E-03,4.600
3.45E-03,4.800
3.45E-03,5.000
3.46E-03,4.600
3.46E-03,4.600
3.46E-03,4.400
3.47E-03,4.400
3.47E-03,4.800
3.48E-03,4.600
3.48E-03,5.000
3.48E-03,4.600
3.49E-03,4.600
3.49E-03,4.600
3.50E-03,4.800
3.50E-03,4.400
3.50E-03,4.600
3.51E-03,4.600
3.51E-03,4.600
3.52E-03,4.600
3.52E-03,4.800
3.52E-03,4.600
3.53E-03,4.600
3.53E-03,4.600
3.54E-03,4.400
3.54E-03,4.600
3.54E-03,4.600
3.55E-03,-0.400
3.55E-03,-0.200
3.56E-03,-0.400
3.56E-03,-0.400
3.56E-03,0.000
3.57E-03,-0.400
3.57E-03,-0.400
3.58E-03,0.200
3.58E-03,0.200
3.58E-03,-0.400
3.59E-03,-0.400
3.59E-03,0.000
3.60E-03,-0.400
3.60E-03,0.000
3.60E-03,-0.400
3.61E-03,-0.200
3.61E-03,-0.200
3.62E-03,0.000
3.62E-03,0.000
3.62E-03,0.200
3.63E-03,-0.200
3.63E-03,0.000
3.64E-03,-0.200
3.64E-03,-0.400
3.64E-03,-0.200
3.65E-03,-0.400
3.65E-03,-0.200
3.66E-03,4.800
3.66E-03,5.000
3.66E-03,5.000
3.67E-03,4.800
3.67E-03,4.800
3.68E-03,4.800
3.68E-03,4.600
3.68E-03,4.600
3.69E-03,4.600
3.69E-03,4.600
3.70E-03,4.800
3.70E-03,5.000
3.70E-03,4.400
3.71E-03,4.800
3.71E-03,4.800
3.72E-03,4.600
3.72E-03,4.400
3.72E-03,4.800
3.73E-03,4.800
3.73E-03,5.200
3.74E-03,4.800
3.74E-03,4.600
3.74E-03,4.800
3.75E-03,5.000
3.75E-03,4.600
3.76E-03,4.400
3.76E-03,-0.200
3.76E-03,-0.200
3.77E-03,0.000
3.77E-03,-0.200
3.78E-03,0.000
3.78E-03,-0.200
3.78E-03,-0.400
3.79E-03,0.000
3.79E-03,-0.400
3.80E-03,0.000
3.80E-03,0.000
3.80E-03,0.000
3.81E-03,-0.200
3.81E-03,0.000
3.82E-03,-0.400
3.82E-03,-0.200
3.82E-03,-0.200
3.83E-03,-0.400
3.83E-03,-0.200
3.84E-03,-0.200
3.84E-03,-0.200
3.84E-03,-0.400
3.85E-03,0.000
3.85E-03,-0.200
3.86E-03,-0.400
3.86E-03,-0.400
3.86E-03,4.800
3.87E-03,4.600
3.87E-03,4.400
3.88E-03,4.800
3.88E-03,4.800
3.88E-03,4.800
3.89E-03,5.000
3.89E-03,5.000
3.90E-03,4.800
3.90E-03,4.600
3.90E-03,4.600
3.91E-03,4.600
3.91E-03,4.600
3.92E-03,4.600
3.92E-03,4.600
3.92E-03,4.800
3.93E-03,4.600
3.93E-03,4.800
3.94E-03,4.800
3.94E-03,4.800
3.94E-03,4.800
3.95E-03,4.600
3.95E-03,4.600
3.96E-03,4.800
3.96E-03,4.600
3.96E-03,0.000
3.97E-03,-0.200
3.97E-03,-0.200
3.98E-03,-0.200
3.98E-03,-0.200
3.98E-03,0.000
3.99E-03,-0.200
3.99E-03,-0.200
4.00E-03,0.000
4.00E-03,-0.200
4.00E-03,0.000
4.01E-03,-0.200
4.01E-03,0.000
4.02E-03,-0.200
4.02E-03,-0.200
4.02E-03,-0.200
4.03E-03,-0.200
4.03E-03,-0.200
4.04E-03,-0.200
4.04E-03,-0.200
4.04E-03,-0.200
4.05E-03,0.000
4.05E-03,-0.400
4.06E-03,-0.200
4.06E-03,-0.200
4.06E-03,-0.200
4.07E-03,4.600
4.07E-03,4.600
4.08E-03,4.400
4.08E-03,4.600
4.08E-03,4.600
4.09E-03,4.600
4.09E-03,4.600
4.10E-03,4.600
4.10E-03,4.600
4.10E-03,4.600
4.11E-03,4.400
4.11E-03,5.000
4.12E-03,4.400
4.12E-03,4.600
4.12E-03,4.600
4.13E-03,4.800
4.13E-03,4.600
4.14E-03,4.800
4.14E-03,4.600
4.14E-03,4.600
4.15E-03,4.800
4.15E-03,4.800
4.16E-03,4.600
4.16E-03,4.600
4.16E-03,4.800
4.17E-03,4.800
4.17E-03,-0.400
4.18E-03,0.000
4.18E-03,0.000
4.18E-03,-0.200
4.19E-03,-0.200
4.19E-03,-0.200
4.20E-03,0.000
4.20E-03,0.000
4.20E-03,-0.400
4.21E-03,0.000
4.21E-03,-0.200
4.22E-03,-0.400
4.22E-03,0.000
4.22E-03,-0.400
4.23E-03,0.000
4.23E-03,-0.400
4.24E-03,0.000
4.24E-03,-0.400
4.24E-03,0.000
4.25E-03,-0.400
4.25E-03,0.000
4.26E-03,-0.400
4.26E-03,0.000
4.26E-03,-0.200
4.27E-03,-0.200
4.27E-03,-0.200
4.28E-03,4.600
4.28E-03,4.800
4.28E-03,4.600
4.29E-03,4.600
4.29E-03,4.800
4.30E-03,4.800
4.30E-03,4.400
4.30E-03,4.600
4.31E-03,4.400
4.31E-03,4.400
4.32E-03,4.400
4.32E-03,5.200
4.32E-03,4.600
4.33E-03,4.800
4.33E-03,4.800
4.34E-03,4.800
4.34E-03,4.600
4.34E-03,4.600
4.35E-03,4.400
4.35E-03,4.400
4.36E-03,4.800
4.36E-03,4.600
4.36E-03,5.200
4.37E-03,4.800
4.37E-03,5.000
4.38E-03,-0.200
4.38E-03,0.000
4.38E-03,-0.200
4.39E-03,0.200
4.39E-03,0.000
4.40E-03,0.200
4.40E-03,0.000
4.40E-03,0.200
4.41E-03,-0.200
4.41E-03,-0.200
4.42E-03,0.000
4.42E-03,-0.200
4.42E-03,-0.400
4.43E-03,-0.400
4.43E-03,-0.200
4.44E-03,-0.200
4.44E-03,0.000
4.44E-03,-0.400
4.45E-03,0.000
4.45E-03,-0.200
4.46E-03,0.000
4.46E-03,-0.200
4.46E-03,-0.200
4.47E-03,0.000
4.47E-03,-0.200
4.48E-03,0.000
4.48E-03,4.800
4.48E-03,4.600
4.49E-03,4.800
4.49E-03,4.600
4.50E-03,4.600
4.50E-03,4.400
4.50E-03,4.400
4.51E-03,4.600
4.51E-03,4.400
4.52E-03,4.600
4.52E-03,4.800
4.52E-03,4.600
4.53E-03,4.800
4.53E-03,4.600
4.54E-03,4.800
4.54E-03,4.600
4.54E-03,4.600
4.55E-03,5.000
4.55E-03,4.600
4.56E-03,4.600
4.56E-03,4.800
4.56E-03,4.800
4.57E-03,4.800
4.57E-03,4.400
4.58E-03,4.400
4.58E-03,4.400
4.58E-03,0.000
4.59E-03,0.000
4.59E-03,0.000
4.60E-03,-0.600
4.60E-03,-0.600
4.60E-03,-0.400
4.61E-03,-0.400
4.61E-03,-0.200
4.62E-03,-0.200
4.62E-03,0.000
4.62E-03,-0.400
4.63E-03,0.000
4.63E-03,-0.200
4.64E-03,0.000
4.64E-03,-0.200
4.64E-03,-0.200
4.65E-03,-0.400
4.65E-03,-0.200
4.66E-03,-0.400
4.66E-03,0.000
4.66E-03,0.000
4.67E-03,0.000
4.67E-03,-0.200
4.68E-03,0.000
4.68E-03,-0.200
4.68E-03,-0.200
4.69E-03,-0.200
4.69E-03,4.600
4.70E-03,4.600
4.70E-03,4.800
4.70E-03,4.600
4.71E-03,4.400
4.71E-03,4.800
4.72E-03,4.800
4.72E-03,4.800
4.72E-03,4.800
4.73E-03,4.800
4.73E-03,4.600
4.74E-03,4.800
4.74E-03,4.800
4.74E-03,4.400
4.75E-03,4.400
4.75E-03,4.400
4.76E-03,4.600
4.76E-03,4.600
4.76E-03,5.000
4.77E-03,4.400
4.77E-03,5.000
4.78E-03,4.400
4.78E-03,4.600
4.78E-03,4.600
4.79E-03,4.600
4.79E-03,4.800
4.80E-03,0.400
4.80E-03,-0.200
4.80E-03,-0.200
4.81E-03,-0.200
4.81E-03,-0.200
4.82E-03,-0.200
4.82E-03,-0.200
4.82E-03,0.000
4.83E-03,-0.400
4.83E-03,0.200
4.84E-03,-0.200
4.84E-03,-0.400
4.84E-03,-0.400
4.85E-03,-0.200
4.85E-03,0.000
4.86E-03,-0.400
4.86E-03,0.000
4.86E-03,-0.400
4.87E-03,-0.400
4.87E-03,0.000
4.88E-03,-0.200
4.88E-03,-0.600
4.88E-03,0.200
4.89E-03,0.000
4.89E-03,0.200
4.90E-03,-0.200
4.90E-03,4.600
4.90E-03,4.600
4.91E-03,4.600
4.91E-03,4.800
4.92E-03,4.600
4.92E-03,4.600
4.92E-03,4.800
4.93E-03,4.600
4.93E-03,5.000
4.94E-03,4.800
4.94E-03,4.800
4.94E-03,4.600
4.95E-03,4.800
4.95E-03,4.400
4.96E-03,4.800
4.96E-03,4.800
4.96E-03,5.000
4.97E-03,4.400
4.97E-03,4.600
4.98E-03,4.800
4.98E-03,4.800
4.98E-03,4.800
4.99E-03,4.800
4.99E-03,4.800
5.00E-03,5.000
5.00E-03,0.200
5.00E-03,-0.400
5.01E-03,0.000
5.01E-03,-0.400
5.02E-03,-0.400
5.02E-03,-0.400
5.02E-03,0.000
5.03E-03,-0.200
5.03E-03,-0.400
5.04E-03,-0.400
5.04E-03,-0.200
5.04E-03,-0.400
5.05E-03,-0.200
5.05E-03,-0.600
5.06E-03,0.200
5.06E-03,0.000
5.06E-03,0.000
5.07E-03,-0.200
5.07E-03,-0.400
5.08E-03,-0.200
5.08E-03,-0.200
5.08E-03,0.000
5.09E-03,-0.400
5.09E-03,0.000
5.10E-03,-0.600
5.10E-03,0.000
5.10E-03,4.600
5.11E-03,4.800
5.11E-03,4.800
5.12E-03,4.800
5.12E-03,4.800
5.12E-03,4.800
5.13E-03,5.200
5.13E-03,4.600
5.14E-03,4.800
5.14E-03,4.800
5.14E-03,4.800
5.15E-03,4.600
5.15E-03,4.800
5.16E-03,4.600
5.16E-03,4.600
5.16E-03,4.600
5.17E-03,4.600
5.17E-03,4.600
5.18E-03,4.800
5.18E-03,4.400
5.18E-03,4.400
5.19E-03,4.600
5.19E-03,4.400
5.20E-03,4.800
5.20E-03,4.600
5.20E-03,4.800
5.21E-03,-0.200
5.21E-03,-0.200
5.22E-03,-0.200
5.22E-03,0.000
5.22E-03,0.000
5.23E-03,-0.200
5.23E-03,-0.200
5.24E-03,-0.400
5.24E-03,-0.400
5.24E-03,0.000
5.25E-03,-0.400
5.25E-03,0.000
5.26E-03,0.000
5.26E-03,-0.400
5.26E-03,0.000
5.27E-03,-0.200
5.27E-03,0.000
5.28E-03,-0.200
5.28E-03,-0.200
5.28E-03,-0.200
5.29E-03,-0.200
5.29E-03,-0.200
5.30E-03,-0.200
5.30E-03,-0.400
5.30E-03,0.000
5.31E-03,-0.400
5.31E-03,4.600
5.32E-03,5.000
5.32E-03,4.800
5.32E-03,4.600
5.33E-03,4.600
5.33E-03,4.600
5.34E-03,4.800
5.34E-03,5.000
5.34E-03,4.600
5.35E-03,4.600
5.35E-03,4.600
5.36E-03,4.600
5.36E-03,4.600
5.36E-03,4.400
5.37E-03,4.600
5.37E-03,4.600
5.38E-03,4.600
5.38E-03,4.800
5.38E-03,4.800
5.39E-03,4.800
5.39E-03,4.600
5.40E-03,4.600
5.40E-03,4.800
5.40E-03,4.600
5.41E-03,4.800
5.41E-03,0.000
5.42E-03,-0.200
5.42E-03,0.000
5.42E-03,-0.200
5.43E-03,-0.600
5.43E-03,-0.400
5.44E-03,-0.200
5.44E-03,-0.200
5.44E-03,-0.200
5.45E-03,0.000
5.45E-03,-0.200
5.46E-03,-0.200
5.46E-03,0.000
5.46E-03,-0.200
5.47E-03,-0.200
5.47E-03,0.000
5.48E-03,0.000
5.48E-03,-0.200
5.48E-03,0.200
5.49E-03,-0.200
5.49E-03,0.000
5.50E-03,0.000
5.50E-03,0.200
5.50E-03,-0.400
5.51E-03,-0.200
5.51E-03,0.000
5.52E-03,4.800
5.52E-03,4.800
5.52E-03,5.000
5.53E-03,4.800
5.53E-03,4.600
5.54E-03,4.800
5.54E-03,4.600
5.54E-03,4.400
5.55E-03,4.400
5.55E-03,4.600
5.56E-03,4.600
5.56E-03,4.600
5.56E-03,4.600
5.57E-03,4.600
5.57E-03,4.800
5.58E-03,4.600
5.58E-03,4.600
5.58E-03,4.400
5.59E-03,4.400
5.59E-03,4.600
5.60E-03,4.600
5.60E-03,4.800
5.60E-03,4.800
5.61E-03,4.800
5.61E-03,5.000
5.62E-03,4.600
5.62E-03,-0.200
5.62E-03,0.000
5.63E-03,0.000
5.63E-03,0.200
5.64E-03,0.000
5.64E-03,-0.600
5.64E-03,-0.600
5.65E-03,0.000
5.65E-03,-0.200
5.66E-03,0.000
5.66E-03,0.200
5.66E-03,0.000
5.67E-03,0.200
5.67E-03,-0.400
5.68E-03,-0.200
5.68E-03,-0.200
5.68E-03,0.200
5.69E-03,-0.200
5.69E-03,-0.400
5.70E-03,-0.200
5.70E-03,-0.400
5.70E-03,-0.400
5.71E-03,-0.200
5.71E-03,-0.400
5.72E-03,0.000
5.72E-03,-0.400
5.72E-03,-0.200
5.73E-03,4.600
5.73E-03,4.800
5.74E-03,4.800
5.74E-03,4.600
5.74E-03,4.400
5.75E-03,4.800
5.75E-03,4.800
5.76E-03,4.600
5.76E-03,4.800
5.76E-03,4.400
5.77E-03,5.000
5.77E-03,4.400
5.78E-03,4.600
5.78E-03,4.800
5.78E-03,4.600
5.79E-03,4.600
5.79E-03,4.600
5.80E-03,5.000
5.80E-03,5.000
5.80E-03,4.600
5.81E-03,4.800
5.81E-03,4.600
5.82E-03,5.000
5.82E-03,4.600
5.82E-03,4.800
5.83E-03,4.600
5.83E-03,-0.200
5.84E-03,0.000
5.84E-03,-0.200
5.84E-03,0.000
5.85E-03,-0.400
5.85E-03,-0.200
5.86E-03,-0.200
5.86E-03,-0.200
5.86E-03,-0.400
5.87E-03,0.000
5.87E-03,-0.400
5.88E-03,0.000
5.88E-03,-0.600
5.88E-03,0.200
5.89E-03,-0.400
5.89E-03,-0.200
5.90E-03,-0.200
5.90E-03,0.200
5.90E-03,-0.200
5.91E-03,0.000
5.91E-03,-0.200
5.92E-03,-0.200
5.92E-03,-0.400
5.92E-03,0.000
5.93E-03,-0.200
5.93E-03,-0.200
5.94E-03,5.000
5.94E-03,4.600
5.94E-03,5.000
5.95E-03,4.600
5.95E-03,4.800
5.96E-03,4.600
5.96E-03,4.800
5.96E-03,4.600
5.97E-03,5.000
5.97E-03,4.600
5.98E-03,4.800
5.98E-03,4.600
5.98E-03,4.800
5.99E-03,4.600
5.99E-03,4.600
6.00E-03,4.800
6.00E-03,4.800
6.00E-03,5.000
6.01E-03,5.000
6.01E-03,5.000
6.02E-03,4.800
6.02E-03,4.600
6.02E-03,4.800
6.03E-03,4.800
6.03E-03,4.600
6.04E-03,0.000
6.04E-03,0.000
6.04E-03,-0.200
6.05E-03,-0.200
6.05E-03,0.000
6.06E-03,0.000
6.06E-03,-0.200
6.06E-03,-0.200
6.07E-03,0.000
6.07E-03,0.000
6.08E-03,-0.600
6.08E-03,-0.200
6.08E-03,-0.400
6.09E-03,-0.200
6.09E-03,0.000
6.10E-03,0.000
6.10E-03,-0.200
6.10E-03,0.000
6.11E-03,-0.200
6.11E-03,-0.200
6.12E-03,-0.200
6.12E-03,-0.200
6.12E-03,-0.200
6.13E-03,0.000
6.13E-03,-0.200
6.14E-03,-0.200
6.14E-03,4.400
6.14E-03,4.800
6.15E-03,4.600
6.15E-03,4.600
6.16E-03,4.600
6.16E-03,4.800
6.16E-03,4.600
6.17E-03,4.800
6.17E-03,5.000
6.18E-03,4.800
6.18E-03,4.600
6.18E-03,4.600
6.19E-03,4.600
6.19E-03,4.600
6.20E-03,4.800
6.20E-03,4.600
6.20E-03,4.600
6.21E-03,4.800
6.21E-03,4.600
6.22E-03,4.800
6.22E-03,4.600
6.22E-03,4.600
6.23E-03,4.800
6.23E-03,4.600
6.24E-03,4.400
6.24E-03,4.800
6.24E-03,-0.200
6.25E-03,0.000
6.25E-03,-0.400
6.26E-03,-0.200
6.26E-03,-0.400
6.26E-03,-0.400
6.27E-03,-0.400
6.27E-03,-0.400
6.28E-03,-0.400
6.28E-03,-0.200
6.28E-03,-0.400
6.29E-03,-0.200
6.29E-03,-0.400
6.30E-03,-0.200
6.30E-03,0.000
6.30E-03,-0.200
6.31E-03,-0.200
6.31E-03,-0.400
6.32E-03,-0.200
6.32E-03,0.000
6.32E-03,0.200
6.33E-03,-0.400
6.33E-03,0.000
6.34E-03,0.000
6.34E-03,0.000
6.34E-03,-0.200
6.35E-03,4.600
6.35E-03,4.400
6.36E-03,4.600
6.36E-03,4.800
6.36E-03,4.600
6.37E-03,4.800
6.37E-03,4.600
6.38E-03,4.800
6.38E-03,4.600
6.38E-03,4.400
6.39E-03,5.000
6.39E-03,4.800
6.40E-03,4.400
6.40E-03,4.400
6.40E-03,4.600
6.41E-03,4.600
6.41E-03,4.600
6.42E-03,5.000
6.42E-03,5.000
6.42E-03,4.800
6.43E-03,5.000
6.43E-03,4.600
6.44E-03,4.800
6.44E-03,4.400
6.44E-03,4.600
6.45E-03,-0.200
6.45E-03,0.000
6.46E-03,-0.200
6.46E-03,-0.400
6.46E-03,-0.400
6.47E-03,0.000
6.47E-03,-0.200
6.48E-03,-0.200
6.48E-03,-0.200
6.48E-03,-0.400
6.49E-03,-0.200
6.49E-03,-0.400
6.50E-03,0.000
6.50E-03,-0.600
6.50E-03,-0.600
6.51E-03,-0.400
6.51E-03,-0.200
6.52E-03,0.000
6.52E-03,0.000
6.52E-03,-0.200
6.53E-03,-0.400
6.53E-03,-0.200
6.54E-03,-0.200
6.54E-03,-0.400
6.54E-03,-0.400
6.55E-03,-0.400
6.55E-03,4.600
6.56E-03,4.800
6.56E-03,4.800
6.56E-03,4.600
6.57E-03,4.600
6.57E-03,4.800
6.58E-03,4.400
6.58E-03,4.600
6.58E-03,4.600
6.59E-03,4.600
6.59E-03,4.800
6.60E-03,4.600
6.60E-03,4.600
6.60E-03,4.400
6.61E-03,4.400
6.61E-03,4.600
6.62E-03,4.600
6.62E-03,4.600
6.62E-03,4.800
6.63E-03,4.600
6.63E-03,4.800
6.64E-03,5.000
6.64E-03,4.800
6.64E-03,4.600
6.65E-03,4.600
6.65E-03,4.600
6.66E-03,0.000
6.66E-03,-0.200
6.66E-03,-0.400
6.67E-03,-0.200
6.67E-03,-0.200
6.68E-03,-0.200
6.68E-03,-0.400
6.68E-03,-0.200
6.69E-03,-0.200
6.69E-03,0.000
6.70E-03,-0.400
6.70E-03,-0.200
6.70E-03,0.000
6.71E-03,-0.200
6.71E-03,-0.400
6.72E-03,0.000
6.72E-03,-0.200
6.72E-03,-0.200
6.73E-03,-0.400
6.73E-03,0.000
6.74E-03,-0.200
6.74E-03,-0.200
6.74E-03,-0.400
6.75E-03,-0.200
6.75E-03,0.000
6.76E-03,-0.200
6.76E-03,-0.400
6.76E-03,4.600
6.77E-03,4.800
6.77E-03,4.600
6.78E-03,4.400
6.78E-03,4.400
6.78E-03,4.600
6.79E-03,4.600
6.79E-03,4.600
6.80E-03,4.400
6.80E-03,4.400
6.80E-03,4.400
6.81E-03,4.600
6.81E-03,4.600
6.82E-03,4.400
6.82E-03,5.000
6.82E-03,4.800
6.83E-03,4.600
6.83E-03,5.200
6.84E-03,4.800
6.84E-03,4.600
6.84E-03,4.800
6.85E-03,4.600
6.85E-03,4.600
6.86E-03,4.600
6.86E-03,4.800
6.86E-03,4.600
6.87E-03,0.000
6.87E-03,-0.200
6.88E-03,0.200
6.88E-03,-0.400
6.88E-03,-0.200
6.89E-03,0.000
6.89E-03,-0.200
6.90E-03,-0.400
6.90E-03,-0.400
6.90E-03,0.000
6.91E-03,-0.200
6.91E-03,-0.200
6.92E-03,-0.200
6.92E-03,-0.200
6.92E-03,0.000
6.93E-03,0.000
6.93E-03,-0.200
6.94E-03,0.000
6.94E-03,-0.400
6.94E-03,-0.400
6.95E-03,-0.400
6.95E-03,0.200
6.96E-03,0.000
6.96E-03,-0.200
6.96E-03,-0.200
6.97E-03,0.000
6.97E-03,4.600
6.98E-03,4.600
6.98E-03,4.400
6.98E-03,4.800
6.99E-03,4.600
6.99E-03,4.600
7.00E-03,4.600
7.00E-03,4.600
7.00E-03,4.600
7.01E-03,4.600
7.01E-03,4.600
7.02E-03,5.000
7.02E-03,4.600
7.02E-03,4.600
7.03E-03,4.600
7.03E-03,4.800
7.04E-03,4.600
7.04E-03,4.600
7.04E-03,4.800
7.05E-03,4.800
7.05E-03,4.600
7.06E-03,4.800
7.06E-03,4.600
7.06E-03,4.800
7.07E-03,4.800
7.07E-03,-0.200
7.08E-03,0.200
7.08E-03,-0.200
7.08E-03,0.000
7.09E-03,-0.200
7.09E-03,-0.400
7.10E-03,-0.200
7.10E-03,0.000
7.10E-03,0.000
7.11E-03,0.200
7.11E-03,-0.400
7.12E-03,-0.200
7.12E-03,0.200
7.12E-03,-0.400
7.13E-03,0.200
7.13E-03,-0.400
7.14E-03,-0.200
7.14E-03,-0.400
7.14E-03,-0.400
7.15E-03,-0.200
7.15E-03,-0.400
7.16E-03,0.000
7.16E-03,-0.200
7.16E-03,0.000
7.17E-03,0.000
7.17E-03,-0.400
7.18E-03,5.000
7.18E-03,4.800
7.18E-03,4.600
7.19E-03,4.600
7.19E-03,4.800
7.20E-03,4.600
7.20E-03,4.600
7.20E-03,4.800
7.21E-03,4.800
7.21E-03,4.800
7.22E-03,4.800
7.22E-03,4.400
7.22E-03,4.800
7.23E-03,4.800
7.23E-03,4.600
7.24E-03,4.800
7.24E-03,4.800
7.24E-03,4.600
7.25E-03,4.400
7.25E-03,4.800
7.26E-03,4.600
7.26E-03,4.800
7.26E-03,4.600
7.27E-03,4.800
7.27E-03,4.600
7.28E-03,4.600
7.28E-03,0.200
7.28E-03,-0.200
7.29E-03,-0.200
7.29E-03,0.000
7.30E-03,-0.200
7.30E-03,0.000
7.30E-03,0.000
7.31E-03,-0.400
7.31E-03,0.000
7.32E-03,-0.200
7.32E-03,-0.200
7.32E-03,0.000
7.33E-03,-0.200
7.33E-03,-0.200
7.34E-03,0.000
7.34E-03,0.000
7.34E-03,0.200
7.35E-03,0.000
7.35E-03,0.000
7.36E-03,-0.400
7.36E-03,-0.400
7.36E-03,-0.200
7.37E-03,0.000
7.37E-03,-0.400
7.38E-03,-0.200
7.38E-03,-0.400
7.38E-03,4.400
7.39E-03,4.600
7.39E-03,4.800
7.40E-03,4.600
7.40E-03,4.600
7.40E-03,4.400
7.41E-03,4.600
7.41E-03,5.000
7.42E-03,4.800
7.42E-03,4.400
7.42E-03,4.400
7.43E-03,4.400
7.43E-03,4.400
7.44E-03,4.400
7.44E-03,4.400
7.44E-03,4.400
7.45E-03,4.800
7.45E-03,4.600
7.46E-03,4.600
7.46E-03,4.600
7.46E-03,4.600
7.47E-03,4.600
7.47E-03,4.800
7.48E-03,4.600
7.48E-03,4.800
7.48E-03,-0.200
7.49E-03,0.200
7.49E-03,-0.200
7.50E-03,0.000
7.50E-03,0.200
7.50E-03,0.200
7.51E-03,0.200
7.51E-03,-0.400
7.52E-03,-0.400
7.52E-03,-0.200
7.52E-03,-0.200
7.53E-03,-0.400
7.53E-03,-0.400
7.54E-03,0.000
7.54E-03,-0.200
7.54E-03,0.000
7.55E-03,-0.400
7.55E-03,0.000
7.56E-03,0.000
7.56E-03,-0.400
7.56E-03,0.000
7.57E-03,-0.200
7.57E-03,0.000
7.58E-03,-0.200
7.58E-03,-0.200
7.58E-03,-0.200
7.59E-03,4.400
7.59E-03,4.800
7.60E-03,4.600
7.60E-03,4.800
7.60E-03,5.000
7.61E-03,4.600
7.61E-03,4.400
7.62E-03,4.400
7.62E-03,4.800
7.62E-03,4.800
7.63E-03,4.800
7.63E-03,4.800
7.64E-03,4.600
7.64E-03,4.400
7.64E-03,4.800
7.65E-03,4.800
7.65E-03,4.600
7.66E-03,4.600
7.66E-03,4.800
7.66E-03,4.600
7.67E-03,4.800
7.67E-03,4.800
7.68E-03,4.400
7.68E-03,4.200
7.68E-03,4.400
7.69E-03,4.600
7.69E-03,-0.200
7.70E-03,-0.200
7.70E-03,0.200
7.70E-03,0.200
7.71E-03,-0.200
7.71E-03,-0.400
7.72E-03,0.000
7.72E-03,0.000
7.72E-03,0.200
7.73E-03,0.200
7.73E-03,-0.200
7.74E-03,-0.200
7.74E-03,-0.200
7.74E-03,-0.200
7.75E-03,-0.400
7.75E-03,0.000
7.76E-03,-0.200
7.76E-03,0.000
7.76E-03,0.000
7.77E-03,-0.400
7.77E-03,-0.400
7.78E-03,-0.400
7.78E-03,-0.200
7.78E-03,0.200
7.79E-03,-0.400
7.79E-03,-0.200
7.80E-03,0.000
7.80E-03,4.600
7.80E-03,4.600
7.81E-03,4.600
7.81E-03,4.800
7.82E-03,4.800
7.82E-03,4.600
7.82E-03,4.600
7.83E-03,4.600
7.83E-03,4.600
7.84E-03,4.600
7.84E-03,4.800
7.84E-03,4.600
7.85E-03,4.800
7.85E-03,4.800
7.86E-03,4.400
7.86E-03,4.800
7.86E-03,4.600
7.87E-03,4.600
7.87E-03,4.800
7.88E-03,4.400
7.88E-03,4.400
7.88E-03,4.600
7.89E-03,4.600
7.89E-03,4.600
7.90E-03,4.800
7.90E-03,4.600
7.90E-03,-0.200
7.91E-03,-0.400
7.91E-03,-0.200
7.92E-03,-0.400
7.92E-03,-0.200
7.92E-03,-0.200
7.93E-03,-0.400
7.93E-03,0.000
7.94E-03,-0.400
7.94E-03,-0.400
7.94E-03,-0.200
7.95E-03,0.200
7.95E-03,0.000
7.96E-03,0.200
7.96E-03,0.200
7.96E-03,0.000
7.97E-03,0.000
7.97E-03,0.200
7.98E-03,-0.400
7.98E-03,-0.400
7.98E-03,-0.200
7.99E-03,-0.400
7.99E-03,-0.200
8.00E-03,-0.200
8.00E-03,0.000
8.00E-03,0.200
8.01E-03,4.600
8.01E-03,4.400
8.02E-03,4.600
8.02E-03,4.800
8.02E-03,4.600
8.03E-03,4.800
8.03E-03,4.600
8.04E-03,4.800
8.04E-03,4.600
8.04E-03,4.800
8.05E-03,4.800
8.05E-03,4.800
8.06E-03,5.000
8.06E-03,4.800
8.06E-03,4.600
8.07E-03,4.600
8.07E-03,4.400
8.08E-03,4.600
8.08E-03,4.600
8.08E-03,4.600
8.09E-03,4.600
8.09E-03,4.800
8.10E-03,4.600
8.10E-03,4.800
8.10E-03,4.600
8.11E-03,-0.200
8.11E-03,-0.200
8.12E-03,0.000
8.12E-03,0.000
8.12E-03,-0.200
8.13E-03,-0.200
8.13E-03,0.000
8.14E-03,0.000
8.14E-03,-0.400
8.14E-03,-0.200
8.15E-03,-0.400
8.15E-03,0.000
8.16E-03,-0.200
8.16E-03,0.000
8.16E-03,-0.600
8.17E-03,-0.200
8.17E-03,-0.200
8.18E-03,-0.200
8.18E-03,-0.200
8.18E-03,-0.400
8.19E-03,-0.200
8.19E-03,-0.200
8.20E-03,-0.400
8.20E-03,-0.200
8.20E-03,-0.600
8.21E-03,0.200
8.21E-03,4.600
8.22E-03,5.000
8.22E-03,4.600
8.22E-03,4.600
8.23E-03,5.200
8.23E-03,5.200
8.24E-03,4.600
8.24E-03,4.800
8.24E-03,4.600
8.25E-03,4.600
8.25E-03,4.600
8.26E-03,4.800
8.26E-03,4.800
8.26E-03,4.600
8.27E-03,4.600
8.27E-03,4.600
8.28E-03,4.600
8.28E-03,4.600
8.28E-03,4.800
8.29E-03,4.400
8.29E-03,4.800
8.30E-03,4.600
8.30E-03,4.800
8.30E-03,4.800
8.31E-03,5.000
8.31E-03,4.800
8.32E-03,0.000
8.32E-03,-0.200
8.32E-03,0.000
8.33E-03,-0.200
8.33E-03,-0.400
8.34E-03,-0.400
8.34E-03,-0.200
8.34E-03,-0.200
8.35E-03,0.000
8.35E-03,-0.200
8.36E-03,-0.400
8.36E-03,0.000
8.36E-03,-0.400
8.37E-03,0.000
8.37E-03,0.000
8.38E-03,-0.400
8.38E-03,-0.400
8.38E-03,-0.400
8.39E-03,0.000
8.39E-03,-0.400
8.40E-03,0.000
8.40E-03,-0.200
8.40E-03,-0.200
8.41E-03,-0.400
8.41E-03,0.200
8.42E-03,-0.400
8.42E-03,4.600
8.42E-03,4.600
8.43E-03,4.400
8.43E-03,4.800
8.44E-03,4.600
8.44E-03,4.800
8.44E-03,4.800
8.45E-03,4.800
8.45E-03,4.600
8.46E-03,4.800
8.46E-03,5.000
8.46E-03,4.600
8.47E-03,4.600
8.47E-03,4.400
8.48E-03,4.600
8.48E-03,4.600
8.48E-03,4.600
8.49E-03,4.600
8.49E-03,4.600
8.50E-03,4.600
8.50E-03,4.800
8.50E-03,4.600
8.51E-03,4.400
8.51E-03,4.800
8.52E-03,4.400
8.52E-03,-0.200
8.52E-03,-0.400
8.53E-03,-0.200
8.53E-03,-0.200
8.54E-03,-0.200
8.54E-03,-0.400
8.54E-03,-0.400
8.55E-03,-0.200
8.55E-03,-0.200
8.56E-03,-0.200
8.56E-03,-0.400
8.56E-03,-0.200
8.57E-03,-0.200
8.57E-03,0.000
8.58E-03,0.000
8.58E-03,-0.400
8.58E-03,-0.200
8.59E-03,-0.200
8.59E-03,0.000
8.60E-03,-0.600
8.60E-03,-0.600
8.60E-03,0.000
8.61E-03,-0.200
8.61E-03,-0.400
8.62E-03,0.000
8.62E-03,0.000
8.62E-03,4.800
8.63E-03,4.200
8.63E-03,4.600
8.64E-03,4.600
8.64E-03,4.400
8.64E-03,4.800
8.65E-03,5.000
8.65E-03,4.800
8.66E-03,4.800
8.66E-03,4.800
8.66E-03,4.800
8.67E-03,4.800
8.67E-03,4.600
8.68E-03,4.600
8.68E-03,5.200
8.68E-03,4.600
8.69E-03,4.600
8.69E-03,4.400
8.70E-03,4.400
8.70E-03,4.600
8.70E-03,4.600
8.71E-03,4.600
8.71E-03,4.600
8.72E-03,4.800
8.72E-03,4.800
8.72E-03,4.600
8.73E-03,0.000
8.73E-03,-0.400
8.74E-03,0.000
8.74E-03,-0.200
8.74E-03,-0.400
8.75E-03,0.000
8.75E-03,0.000
8.76E-03,-0.200
8.76E-03,-0.200
8.76E-03,-0.400
8.77E-03,-0.200
8.77E-03,0.200
8.78E-03,-0.400
8.78E-03,0.000
8.78E-03,-0.200
8.79E-03,-0.400
8.79E-03,-0.400
8.80E-03,-0.200
8.80E-03,-0.200
8.80E-03,0.000
8.81E-03,0.200
8.81E-03,0.000
8.82E-03,-0.200
8.82E-03,-0.200
8.82E-03,-0.200
8.83E-03,-0.200
8.83E-03,-0.200
8.84E-03,4.600
8.84E-03,4.800
8.84E-03,4.800
8.85E-03,5.400
8.85E-03,5.000
8.86E-03,4.800
8.86E-03,4.600
8.86E-03,4.400
8.87E-03,4.600
8.87E-03,4.600
8.88E-03,4.800
8.88E-03,4.600
8.88E-03,5.000
8.89E-03,5.000
8.89E-03,5.000
8.90E-03,4.800
8.90E-03,4.600
8.90E-03,5.400
8.91E-03,4.600
8.91E-03,4.800
8.92E-03,4.600
8.92E-03,4.600
8.92E-03,4.800
8.93E-03,5.000
8.93E-03,4.600
8.94E-03,4.600
8.94E-03,0.000
8.94E-03,0.200
8.95E-03,-0.200
8.95E-03,0.000
8.96E-03,-0.200
8.96E-03,0.000
8.96E-03,-0.400
8.97E-03,-0.200
8.97E-03,0.200
8.98E-03,-0.200
8.98E-03,-0.400
8.98E-03,-0.200
8.99E-03,-0.400
8.99E-03,0.000
9.00E-03,-0.400
9.00E-03,-0.400
9.00E-03,-0.400
9.01E-03,-0.200
9.01E-03,-0.200
9.02E-03,-0.400
9.02E-03,-0.200
9.02E-03,-0.400
9.03E-03,-0.200
9.03E-03,-0.600
9.04E-03,0.400
9.04E-03,-0.600
9.04E-03,4.400
9.05E-03,4.600
9.05E-03,4.400
9.06E-03,4.800
9.06E-03,4.600
9.06E-03,5.000
9.07E-03,4.600
9.07E-03,4.800
9.08E-03,4.800
9.08E-03,4.400
9.08E-03,4.600
9.09E-03,4.800
9.09E-03,5.000
9.10E-03,4.600
9.10E-03,4.800
9.10E-03,5.000
9.11E-03,4.800
9.11E-03,4.400
9.12E-03,5.000
9.12E-03,4.800
9.12E-03,5.000
9.13E-03,4.600
9.13E-03,4.800
9.14E-03,4.200
9.14E-03,4.400
9.14E-03,4.200
9.15E-03,0.200
9.15E-03,0.000
9.16E-03,-0.200
9.16E-03,-0.200
9.16E-03,-0.400
9.17E-03,-0.200
9.17E-03,-0.200
9.18E-03,-0.200
9.18E-03,0.000
9.18E-03,0.200
9.19E-03,-0.200
9.19E-03,0.000
9.20E-03,-0.600
9.20E-03,0.200
9.20E-03,0.000
9.21E-03,-0.200
9.21E-03,-0.200
9.22E-03,0.000
9.22E-03,0.000
9.22E-03,-0.400
9.23E-03,-0.200
9.23E-03,-0.200
9.24E-03,-0.200
9.24E-03,-0.200
9.24E-03,-0.200
9.25E-03,4.600
9.25E-03,4.800
9.26E-03,4.400
9.26E-03,4.800
9.26E-03,4.400
9.27E-03,5.000
9.27E-03,4.600
9.28E-03,4.800
9.28E-03,5.000
9.28E-03,4.800
9.29E-03,4.600
9.29E-03,4.800
9.30E-03,4.600
9.30E-03,4.800
9.30E-03,4.600
9.31E-03,4.800
9.31E-03,4.800
9.32E-03,5.200
9.32E-03,4.800
9.32E-03,5.000
9.33E-03,4.800
9.33E-03,5.000
9.34E-03,4.600
9.34E-03,4.800
9.34E-03,4.600
9.35E-03,4.800
9.35E-03,0.000
9.36E-03,0.000
9.36E-03,-0.200
9.36E-03,0.000
9.37E-03,-0.600
9.37E-03,-0.400
9.38E-03,-0.200
9.38E-03,0.000
9.38E-03,0.000
9.39E-03,-0.200
9.39E-03,-0.400
9.40E-03,-0.200
9.40E-03,-0.400
9.40E-03,0.000
9.41E-03,0.000
9.41E-03,-0.200
9.42E-03,-0.200
9.42E-03,-0.400
9.42E-03,-0.200
9.43E-03,0.200
9.43E-03,0.200
9.44E-03,-0.600
9.44E-03,-0.400
9.44E-03,-0.200
9.45E-03,0.000
9.45E-03,0.000
9.46E-03,5.000
9.46E-03,4.600
9.46E-03,4.600
9.47E-03,4.800
9.47E-03,4.600
9.48E-03,4.400
9.48E-03,4.800
9.48E-03,4.800
9.49E-03,4.800
9.49E-03,5.000
9.50E-03,4.600
9.50E-03,4.800
9.50E-03,4.600
9.51E-03,4.800
9.51E-03,4.800
9.52E-03,4.800
9.52E-03,4.600
9.52E-03,4.600
9.53E-03,4.800
9.53E-03,4.600
9.54E-03,4.800
9.54E-03,4.400
9.54E-03,4.400
9.55E-03,4.400
9.55E-03,4.800
9.56E-03,5.200
9.56E-03,-0.400
9.56E-03,-0.200
9.57E-03,-0.200
9.57E-03,-0.200
9.58E-03,-0.200
9.58E-03,0.000
9.58E-03,-0.200
9.59E-03,-0.400
9.59E-03,-0.400
9.60E-03,0.000
9.60E-03,-0.400
9.60E-03,-0.200
9.61E-03,-0.200
9.61E-03,0.000
9.62E-03,-0.400
9.62E-03,-0.400
9.62E-03,0.000
9.63E-03,-0.200
9.63E-03,-0.200
9.64E-03,0.000
9.64E-03,-0.200
9.64E-03,-0.400
9.65E-03,0.000
9.65E-03,0.000
9.66E-03,0.000
9.66E-03,4.600
9.66E-03,5.000
9.67E-03,4.800
9.67E-03,4.600
9.68E-03,4.600
9.68E-03,4.400
9.68E-03,4.600
9.69E-03,4.800
9.69E-03,4.600
9.70E-03,4.600
9.70E-03,4.600
9.70E-03,4.600
9.71E-03,4.800
9.71E-03,4.800
9.72E-03,4.600
9.72E-03,4.600
9.72E-03,4.600
9.73E-03,4.600
9.73E-03,4.600
9.74E-03,5.000
9.74E-03,4.600
9.74E-03,4.600
9.75E-03,5.000
9.75E-03,4.600
9.76E-03,4.600
9.76E-03,4.800
9.76E-03,-0.200
9.77E-03,-0.200
9.77E-03,-0.200
9.78E-03,-0.400
9.78E-03,0.000
9.78E-03,-0.200
9.79E-03,0.000
9.79E-03,-0.200
9.80E-03,-0.200
9.80E-03,-0.400
9.80E-03,-0.200
9.81E-03,0.000
9.81E-03,-0.200
9.82E-03,0.000
9.82E-03,0.000
9.82E-03,0.000
9.83E-03,0.000
9.83E-03,-0.200
9.84E-03,-0.200
9.84E-03,-0.400
9.84E-03,-0.200
9.85E-03,-0.200
9.85E-03,-0.200
9.86E-03,-0.400
9.86E-03,0.000
9.86E-03,0.000
9.87E-03,0.000
9.87E-03,4.400
9.88E-03,4.400
9.88E-03,4.600
9.88E-03,4.800
9.89E-03,4.800
9.89E-03,4.800
9.90E-03,4.800
9.90E-03,4.800
9.90E-03,4.800
9.91E-03,4.800
9.91E-03,4.600
9.92E-03,4.600
9.92E-03,4.800
9.92E-03,4.600
9.93E-03,4.800
9.93E-03,5.000
9.94E-03,5.200
9.94E-03,4.800
9.94E-03,4.600
9.95E-03,4.600
9.95E-03,4.800
9.96E-03,4.800
9.96E-03,4.400
9.96E-03,4.600
9.97E-03,4.600
9.97E-03,4.600
9.98E-03,-0.400
9.98E-03,0.000
9.98E-03,0.000
9.99E-03,0.000
9.99E-03,-0.400
1.00E-02,0.000
1.00E-02,0.000
1.00E-02,-0.200
1.00E-02,-0.200
1.00E-02,-0.200
1.00E-02,-0.200
1.00E-02,-0.400
1.00E-02,0.000
1.00E-02,0.200
1.00E-02,-0.400
1.00E-02,-0.200
1.00E-02,0.000
1.00E-02,-0.400
1.00E-02,-0.400
1.01E-02,-0.400
1.01E-02,-0.400
1.01E-02,-0.400
1.01E-02,-0.400
1.01E-02,0.000
1.01E-02,-0.200
1.01E-02,-0.400
1.01E-02,5.000
1.01E-02,4.800
1.01E-02,4.800
1.01E-02,4.600
1.01E-02,4.600
1.01E-02,4.400
1.01E-02,4.600
1.01E-02,4.600
1.01E-02,4.800
1.01E-02,4.800
1.01E-02,4.800
1.01E-02,4.800
1.01E-02,5.000
1.01E-02,5.000
1.01E-02,4.800
1.01E-02,4.800
1.01E-02,4.800
1.01E-02,4.600
1.02E-02,4.600
1.02E-02,4.800
1.02E-02,4.600
1.02E-02,4.600
1.02E-02,4.600
1.02E-02,4.600
1.02E-02,4.600
1.02E-02,4.600
1.02E-02,0.000
1.02E-02,0.400
1.02E-02,-0.400
1.02E-02,-0.400
1.02E-02,0.000
1.02E-02,-0.200
1.02E-02,-0.200
1.02E-02,0.000
1.02E-02,-0.200
1.02E-02,-0.200
1.02E-02,0.000
1.02E-02,0.000
1.02E-02,-0.200
1.02E-02,-0.200
1.02E-02,-0.200
1.02E-02,-0.200
1.02E-02,-0.400
1.03E-02,-0.200
1.03E-02,-0.200
1.03E-02,-0.200
1.03E-02,-0.400
1.03E-02,-0.200
1.03E-02,0.000
1.03E-02,0.000
1.03E-02,0.000
1.03E-02,4.600
1.03E-02,4.800
1.03E-02,4.800
1.03E-02,4.600
1.03E-02,4.600
1.03E-02,4.600
1.03E-02,4.600
1.03E-02,4.800
1.03E-02,4.600
1.03E-02,4.600
1.03E-02,4.800
1.03E-02,5.200
1.03E-02,5.000
1.03E-02,4.800
1.03E-02,5.000
1.03E-02,4.800
1.03E-02,4.800
1.04E-02,4.200
1.04E-02,4.800
1.04E-02,4.600
1.04E-02,4.800
1.04E-02,4.600
1.04E-02,4.600
1.04E-02,4.600
1.04E-02,4.400
1.04E-02,4.600
1.04E-02,0.000
1.04E-02,0.000
1.04E-02,-0.200
1.04E-02,-0.200
1.04E-02,-0.200
1.04E-02,-0.200
1.04E-02,-0.200
1.04E-02,0.000
1.04E-02,-0.600
1.04E-02,0.000
1.04E-02,0.000
1.04E-02,0.200
1.04E-02,0.000
1.04E-02,0.200
1.04E-02,-0.200
1.04E-02,-0.200
1.05E-02,-0.200
1.05E-02,0.000
1.05E-02,-0.400
1.05E-02,-0.200
1.05E-02,0.000
1.05E-02,0.000
1.05E-02,-0.400
1.05E-02,-0.400
1.05E-02,0.000
1.05E-02,-0.400
1.05E-02,4.600
1.05E-02,4.600
1.05E-02,4.800
1.05E-02,5.000
1.05E-02,4.600
1.05E-02,4.600
1.05E-02,4.800
1.05E-02,4.800
1.05E-02,4.800
1.05E-02,4.600
1.05E-02,4.600
1.05E-02,4.600
1.05E-02,4.600
1.05E-02,5.000
1.05E-02,4.800
1.06E-02,4.600
1.06E-02,4.400
1.06E-02,4.800
1.06E-02,5.000
1.06E-02,5.000
1.06E-02,4.600
1.06E-02,5.000
1.06E-02,4.600
1.06E-02,4.600
1.06E-02,4.600
1.06E-02,4.600
1.06E-02,-0.400
1.06E-02,0.000
1.06E-02,-0.200
1.06E-02,-0.200
1.06E-02,0.000
1.06E-02,-0.200
1.06E-02,-0.400
1.06E-02,0.200
1.06E-02,0.200
1.06E-02,0.000
1.06E-02,0.000
1.06E-02,-0.200
1.06E-02,-0.400
1.06E-02,-0.200
1.07E-02,-0.400
1.07E-02,-0.200
1.07E-02,-0.200
1.07E-02,-0.400
1.07E-02,-0.400
1.07E-02,-0.400
1.07E-02,-0.400
1.07E-02,-0.200
1.07E-02,-0.400
1.07E-02,0.000
1.07E-02,0.000
1.07E-02,4.600
1.07E-02,4.800
1.07E-02,5.000
1.07E-02,4.600
1.07E-02,4.600
1.07E-02,4.600
1.07E-02,4.600
1.07E-02,4.400
1.07E-02,4.600
1.07E-02,4.600
1.07E-02,4.600
1.07E-02,4.600
1.07E-02,4.600
1.07E-02,4.800
1.08E-02,4.600
1.08E-02,5.000
1.08E-02,4.800
1.08E-02,4.600
1.08E-02,4.600
1.08E-02,4.800
1.08E-02,4.600
1.08E-02,4.800
1.08E-02,4.400
1.08E-02,5.000
1.08E-02,4.600
1.08E-02,4.800
1.08E-02,-0.200
1.08E-02,0.200
1.08E-02,0.200
1.08E-02,-0.400
1.08E-02,-0.200
1.08E-02,-0.200
1.08E-02,0.000
1.08E-02,-0.400
1.08E-02,-0.200
1.08E-02,-0.200
1.08E-02,0.000
1.08E-02,-0.200
1.08E-02,-0.400
1.09E-02,-0.200
1.09E-02,0.000
1.09E-02,0.200
1.09E-02,-0.400
1.09E-02,-0.200
1.09E-02,-0.400
1.09E-02,0.000
1.09E-02,-0.400
1.09E-02,0.000
1.09E-02,-0.200
1.09E-02,-0.200
1.09E-02,-0.400
1.09E-02,-0.200
1.09E-02,-0.400
1.09E-02,4.600
1.09E-02,4.600
1.09E-02,4.400
1.09E-02,4.800
1.09E-02,4.600
1.09E-02,4.800
1.09E-02,5.000
1.09E-02,4.800
1.09E-02,4.600
1.09E-02,4.600
1.09E-02,4.800
1.10E-02,4.800
1.10E-02,4.800
1.10E-02,4.600
1.10E-02,4.800
1.10E-02,4.400
1.10E-02,4.400
1.10E-02,4.400
1.10E-02,4.600
1.10E-02,4.600
1.10E-02,4.800
1.10E-02,4.600
1.10E-02,4.800
1.10E-02,4.600
1.10E-02,5.000
1.10E-02,4.600
1.10E-02,0.000
1.10E-02,0.200
1.10E-02,0.200
1.10E-02,0.000
1.10E-02,0.000
1.10E-02,-0.200
1.10E-02,-0.400
1.10E-02,-0.200
1.10E-02,-0.200
1.10E-02,-0.600
1.11E-02,-0.200
1.11E-02,-0.400
1.11E-02,0.000
1.11E-02,0.200
1.11E-02,-0.200
1.11E-02,0.200
1.11E-02,0.000
1.11E-02,-0.200
1.11E-02,0.000
1.11E-02,-0.400
1.11E-02,-0.400
1.11E-02,-0.200
1.11E-02,-0.400
1.11E-02,-0.200
1.11E-02,-0.200
1.11E-02,-0.200
1.11E-02,4.400
1.11E-02,4.400
1.11E-02,4.800
1.11E-02,4.600
1.11E-02,4.600
1.11E-02,4.600
1.11E-02,5.200
1.11E-02,4.800
1.11E-02,4.800
1.12E-02,4.600
1.12E-02,5.000
1.12E-02,4.600
1.12E-02,4.800
1.12E-02,5.000
1.12E-02,4.600
1.12E-02,4.600
1.12E-02,4.800
1.12E-02,4.600
1.12E-02,4.800
1.12E-02,4.600
1.12E-02,4.400
1.12E-02,4.600
1.12E-02,4.600
1.12E-02,5.000
1.12E-02,4.800
1.12E-02,4.600
1.12E-02,-0.400
1.12E-02,-0.400
1.12E-02,-0.400
1.12E-02,-0.200
1.12E-02,0.000
1.12E-02,-0.400
1.12E-02,0.000
1.12E-02,0.000
1.13E-02,-0.400
1.13E-02,-0.400
1.13E-02,-0.200
1.13E-02,-0.200
1.13E-02,-0.200
1.13E-02,-0.400
1.13E-02,-0.200
1.13E-02,0.000
1.13E-02,0.000
1.13E-02,-0.200
1.13E-02,0.000
1.13E-02,0.000
1.13E-02,-0.400
1.13E-02,-0.200
1.13E-02,0.000
1.13E-02,0.000
1.13E-02,-0.400
1.13E-02,4.800
1.13E-02,5.000
1.13E-02,5.000
1.13E-02,4.800
1.13E-02,4.800
1.13E-02,4.600
1.13E-02,4.600
1.13E-02,4.400
1.14E-02,4.600
1.14E-02,4.600
1.14E-02,4.800
1.14E-02,4.600
1.14E-02,5.000
1.14E-02,4.800
1.14E-02,4.600
1.14E-02,4.400
1.14E-02,4.400
1.14E-02,4.400
1.14E-02,4.400
1.14E-02,4.400
1.14E-02,4.400
1.14E-02,4.400
1.14E-02,5.000
1.14E-02,4.600
1.14E-02,4.600
1.14E-02,4.800
1.14E-02,0.200
1.14E-02,0.000
1.14E-02,0.000
1.14E-02,-0.400
1.14E-02,-0.400
1.14E-02,-0.200
1.14E-02,0.000
1.15E-02,-0.200
1.15E-02,0.200
1.15E-02,-0.200
1.15E-02,-0.200
1.15E-02,-0.400
1.15E-02,0.000
1.15E-02,0.000
1.15E-02,-0.200
1.15E-02,-0.400
1.15E-02,-0.400
1.15E-02,0.000
1.15E-02,-0.600
1.15E-02,-0.200
1.15E-02,-0.200
1.15E-02,-0.200
1.15E-02,-0.200
1.15E-02,-0.200
1.15E-02,-0.200
1.15E-02,-0.200
1.15E-02,4.600
1.15E-02,4.600
1.15E-02,4.800
1.15E-02,4.600
1.15E-02,4.800
1.15E-02,4.600
1.16E-02,4.800
1.16E-02,4.800
1.16E-02,4.800
1.16E-02,4.600
1.16E-02,4.800
1.16E-02,4.600
1.16E-02,5.000
1.16E-02,4.800
1.16E-02,5.000
1.16E-02,4.600
1.16E-02,4.800
1.16E-02,4.800
1.16E-02,4.800
1.16E-02,4.800
1.16E-02,4.600
1.16E-02,4.600
1.16E-02,4.600
1.16E-02,4.400
1.16E-02,4.400
1.16E-02,4.800
1.16E-02,-0.200
1.16E-02,-0.200
1.16E-02,-0.400
1.16E-02,0.000
1.16E-02,0.000
1.17E-02,-0.200
1.17E-02,0.000
1.17E-02,-0.200
1.17E-02,-0.200
1.17E-02,-0.200
1.17E-02,-0.200
1.17E-02,0.000
1.17E-02,-0.200
1.17E-02,0.200
1.17E-02,-0.200
1.17E-02,-0.400
1.17E-02,-0.200
1.17E-02,0.000
1.17E-02,0.000
1.17E-02,-0.200
1.17E-02,0.000
1.17E-02,0.000
1.17E-02,-0.400
1.17E-02,-0.400
1.17E-02,-0.200
1.17E-02,4.400
1.17E-02,5.000
1.17E-02,4.800
1.17E-02,4.600
1.17E-02,4.600
1.18E-02,4.800
1.18E-02,4.600
1.18E-02,4.600
1.18E-02,4.600
1.18E-02,4.600
1.18E-02,4.600
1.18E-02,4.800
1.18E-02,4.400
1.18E-02,4.800
1.18E-02,5.000
1.18E-02,5.000
1.18E-02,4.400
1.18E-02,4.600
1.18E-02,4.800
1.18E-02,4.800
1.18E-02,4.400
1.18E-02,4.600
1.18E-02,4.800
1.18E-02,4.600
1.18E-02,4.600
1.18E-02,4.800
1.18E-02,4.600
1.18E-02,4.600
1.18E-02,-0.400
1.18E-02,0.000
1.19E-02,0.000
1.19E-02,-0.400
1.19E-02,-0.200
1.19E-02,0.000
1.19E-02,-0.200
1.19E-02,0.000
1.19E-02,-0.200
1.19E-02,-0.400
1.19E-02,-0.400
1.19E-02,-0.200
1.19E-02,-0.200
1.19E-02,-0.400
1.19E-02,0.000
1.19E-02,0.200
1.19E-02,0.200
1.19E-02,-0.200
1.19E-02,-0.200
1.19E-02,0.000
1.19E-02,-0.400
1.19E-02,-0.400
1.19E-02,-0.400
1.19E-02,0.000
1.19E-02,0.000
1.19E-02,4.400
1.19E-02,4.600
1.20E-02,5.000
1.20E-02,4.400
1.20E-02,4.400
1.20E-02,4.600
1.20E-02,4.800
1.20E-02,5.000
1.20E-02,4.600
1.20E-02,4.600
1.20E-02,4.600
1.20E-02,5.000
1.20E-02,5.200
1.20E-02,4.800
1.20E-02,4.800
1.20E-02,4.600
1.20E-02,4.600
1.20E-02,4.600
1.20E-02,4.600
1.20E-02,4.600
1.20E-02,4.400
1.20E-02,4.800
1.20E-02,4.600
1.20E-02,4.600
1.20E-02,4.800
1.20E-02,4.400
1.20E-02,-0.200
1.21E-02,-0.200
1.21E-02,-0.200
1.21E-02,0.000
1.21E-02,-0.400
1.21E-02,-0.400
1.21E-02,-0.400
1.21E-02,-0.200
1.21E-02,-0.400
1.21E-02,-0.600
1.21E-02,-0.400
1.21E-02,-0.400
1.21E-02,-0.400
1.21E-02,-0.200
1.21E-02,0.000
1.21E-02,0.000
1.21E-02,-0.200
1.21E-02,0.000
1.21E-02,-0.400
1.21E-02,-0.200
1.21E-02,-0.400
1.21E-02,0.000
1.21E-02,-0.200
1.21E-02,-0.400
1.21E-02,-0.200
1.21E-02,0.000
1.22E-02,5.000
1.22E-02,4.400
1.22E-02,4.600
1.22E-02,4.800
1.22E-02,4.800
1.22E-02,4.800
1.22E-02,4.600
1.22E-02,5.000
1.22E-02,4.600
1.22E-02,4.600
1.22E-02,4.600
1.22E-02,4.600
1.22E-02,4.400
1.22E-02,4.600
1.22E-02,4.600
1.22E-02,4.600
1.22E-02,4.800
1.22E-02,4.800
1.22E-02,4.600
1.22E-02,4.600
1.22E-02,5.000
1.22E-02,5.200
1.22E-02,4.800
1.22E-02,4.400
1.22E-02,4.800
1.23E-02,4.400
1.23E-02,-0.200
1.23E-02,-0.400
1.23E-02,0.000
1.23E-02,-0.200
1.23E-02,-0.400
1.23E-02,0.000
1.23E-02,0.000
1.23E-02,0.200
1.23E-02,-0.200
1.23E-02,0.200
1.23E-02,-0.200
1.23E-02,-0.400
1.23E-02,0.000
1.23E-02,-0.600
1.23E-02,0.200
1.23E-02,0.200
1.23E-02,-0.200
1.23E-02,-0.400
1.23E-02,0.000
1.23E-02,0.000
1.23E-02,-0.200
1.23E-02,-0.200
1.23E-02,-0.400
1.23E-02,0.200
1.24E-02,-0.600
1.24E-02,4.400
1.24E-02,4.800
1.24E-02,4.600
1.24E-02,4.600
1.24E-02,4.800
1.24E-02,4.200
1.24E-02,4.600
1.24E-02,4.400
1.24E-02,4.600
1.24E-02,4.800
1.24E-02,4.800
1.24E-02,4.600
1.24E-02,4.600
1.24E-02,4.800
1.24E-02,4.400
1.24E-02,4.600
1.24E-02,4.800
1.24E-02,5.000
1.24E-02,4.800
1.24E-02,4.800
1.24E-02,4.600
1.24E-02,4.400
1.24E-02,4.600
1.24E-02,4.800
1.25E-02,4.600
1.25E-02,4.800
1.25E-02,-0.200
1.25E-02,-0.400
1.25E-02,-0.200
1.25E-02,-0.200
1.25E-02,-0.200
1.25E-02,-0.200
1.25E-02,-0.200
1.25E-02,-0.200
1.25E-02,-0.200
1.25E-02,-0.200
1.25E-02,-0.200
1.25E-02,0.000
1.25E-02,0.000
1.25E-02,-0.400
1.25E-02,0.000
1.25E-02,0.000
1.25E-02,0.000
1.25E-02,-0.400
1.25E-02,0.000
1.25E-02,-0.200
1.25E-02,-0.200
1.25E-02,-0.200
1.25E-02,-0.200
1.26E-02,-0.400
1.26E-02,0.000
1.26E-02,-0.400
1.26E-02,4.600
1.26E-02,4.600
1.26E-02,4.400
1.26E-02,5.000
1.26E-02,4.800
1.26E-02,4.800
1.26E-02,4.600
1.26E-02,4.800
1.26E-02,4.800
1.26E-02,5.200
1.26E-02,4.800
1.26E-02,4.600
1.26E-02,4.800
1.26E-02,4.600
1.26E-02,4.800
1.26E-02,4.400
1.26E-02,4.600
1.26E-02,4.600
1.26E-02,5.200
1.26E-02,4.600
1.26E-02,4.600
1.26E-02,4.600
1.27E-02,4.600
1.27E-02,4.400
1.27E-02,4.800
1.27E-02,4.600
1.27E-02,0.000
1.27E-02,0.200
1.27E-02,0.000
1.27E-02,-0.600
1.27E-02,-0.200
1.27E-02,0.000
1.27E-02,-0.200
1.27E-02,-0.200
1.27E-02,-0.400
1.27E-02,-0.200
1.27E-02,-0.200
1.27E-02,-0.400
1.27E-02,-0.400
1.27E-02,-0.200
1.27E-02,-0.200
1.27E-02,-0.200
1.27E-02,0.000
1.27E-02,-0.400
1.27E-02,-0.200
1.27E-02,-0.200
1.27E-02,-0.400
1.28E-02,-0.200
1.28E-02,0.000
1.28E-02,0.000
1.28E-02,-0.200
1.28E-02,4.600
1.28E-02,5.200
1.28E-02,4.600
1.28E-02,4.600
1.28E-02,4.800
1.28E-02,4.600
1.28E-02,4.600
1.28E-02,4.800
1.28E-02,4.600
1.28E-02,4.600
1.28E-02,4.400
1.28E-02,4.600
1.28E-02,4.600
1.28E-02,4.800
1.28E-02,4.600
1.28E-02,4.600
1.28E-02,4.600
1.28E-02,4.600
1.28E-02,4.600
1.28E-02,4.600
1.28E-02,4.600
1.29E-02,4.800
1.29E-02,4.000
1.29E-02,4.400
1.29E-02,4.600
1.29E-02,4.400
1.29E-02,4.600
1.29E-02,4.600
1.29E-02,-0.200
1.29E-02,-0.400
1.29E-02,0.000
1.29E-02,-0.200
1.29E-02,0.000
1.29E-02,-0.200
1.29E-02,0.000
1.29E-02,0.000
1.29E-02,-0.400
1.29E-02,-0.200
1.29E-02,-0.200
1.29E-02,0.200
1.29E-02,-0.400
1.29E-02,-0.400
1.29E-02,-0.400
1.29E-02,-0.200
1.29E-02,-0.200
1.29E-02,-0.200
1.30E-02,-0.400
1.30E-02,0.000
1.30E-02,0.000
1.30E-02,-0.200
1.30E-02,-0.200
1.30E-02,0.000
1.30E-02,0.200
1.30E-02,4.800
1.30E-02,4.600
1.30E-02,4.600
1.30E-02,4.600
1.30E-02,4.600
1.30E-02,4.600
1.30E-02,4.400
1.30E-02,4.800
1.30E-02,4.800
1.30E-02,4.600
1.30E-02,5.000
1.30E-02,4.800
1.30E-02,5.000
1.30E-02,4.800
1.30E-02,4.800
1.30E-02,4.400
1.30E-02,4.600
1.30E-02,4.600
1.31E-02,4.600
1.31E-02,4.600
1.31E-02,4.800
1.31E-02,4.800
1.31E-02,4.800
1.31E-02,4.600
1.31E-02,4.600
1.31E-02,5.000
1.31E-02,0.200
1.31E-02,0.000
1.31E-02,-0.600
1.31E-02,0.200
1.31E-02,0.400
1.31E-02,0.000
1.31E-02,-0.200
1.31E-02,0.000
1.31E-02,0.000
1.31E-02,-0.200
1.31E-02,-0.400
1.31E-02,-0.400
1.31E-02,0.000
1.31E-02,-0.200
1.31E-02,-0.200
1.31E-02,-0.400
1.31E-02,-0.400
1.32E-02,-0.400
1.32E-02,-0.200
1.32E-02,-0.600
1.32E-02,0.200
1.32E-02,-0.200
1.32E-02,-0.400
1.32E-02,-0.200
1.32E-02,0.200
1.32E-02,-0.400
1.32E-02,4.600
1.32E-02,4.600
1.32E-02,4.800
1.32E-02,4.600
1.32E-02,4.600
1.32E-02,4.600
1.32E-02,4.400
1.32E-02,4.400
1.32E-02,4.600
1.32E-02,4.800
1.32E-02,5.200
1.32E-02,4.600
1.32E-02,4.800
1.32E-02,4.800
1.32E-02,4.600
1.32E-02,4.800
1.33E-02,4.600
1.33E-02,4.600
1.33E-02,4.600
1.33E-02,4.800
1.33E-02,4.600
1.33E-02,4.800
1.33E-02,4.400
1.33E-02,4.600
1.33E-02,4.600
1.33E-02,4.400
1.33E-02,-0.200
1.33E-02,-0.200
1.33E-02,-0.600
1.33E-02,-0.200
1.33E-02,-0.200
1.33E-02,-0.200
1.33E-02,-0.400
1.33E-02,-0.200
1.33E-02,-0.200
1.33E-02,0.200
1.33E-02,-0.400
1.33E-02,-0.200
1.33E-02,-0.400
1.33E-02,-0.400
1.33E-02,0.000
1.34E-02,0.200
1.34E-02,0.000
1.34E-02,-0.200
1.34E-02,-0.200
1.34E-02,-0.400
1.34E-02,-0.200
1.34E-02,-0.200
1.34E-02,-0.400
1.34E-02,-0.400
1.34E-02,-0.200
1.34E-02,4.800
1.34E-02,4.600
1.34E-02,4.600
1.34E-02,4.600
1.34E-02,4.600
1.34E-02,4.800
1.34E-02,5.000
1.34E-02,4.800
1.34E-02,4.800
1.34E-02,4.600
1.34E-02,4.600
1.34E-02,4.600
1.34E-02,4.600
1.34E-02,4.800
1.34E-02,4.800
1.35E-02,4.800
1.35E-02,4.800
1.35E-02,5.000
1.35E-02,5.000
1.35E-02,4.600
1.35E-02,4.600
1.35E-02,4.400
1.35E-02,4.800
1.35E-02,5.000
1.35E-02,5.000
1.35E-02,4.600
1.35E-02,-0.200
1.35E-02,0.200
1.35E-02,-0.200
1.35E-02,-0.400
1.35E-02,0.200
1.35E-02,0.000
1.35E-02,-0.200
1.35E-02,-0.200
1.35E-02,-0.200
1.35E-02,-0.200
1.35E-02,0.000
1.35E-02,-0.200
1.35E-02,0.000
1.35E-02,-0.200
1.36E-02,0.200
1.36E-02,-0.200
1.36E-02,-0.400
1.36E-02,0.000
1.36E-02,-0.200
1.36E-02,-0.400
1.36E-02,-0.400
1.36E-02,0.000
1.36E-02,-0.200
1.36E-02,-0.200
1.36E-02,-0.200
1.36E-02,-0.400
1.36E-02,4.400
1.36E-02,4.400
1.36E-02,4.400
1.36E-02,4.600
1.36E-02,4.600
1.36E-02,5.000
1.36E-02,4.400
1.36E-02,4.800
1.36E-02,4.600
1.36E-02,4.600
1.36E-02,4.600
1.36E-02,4.600
1.36E-02,4.800
1.37E-02,4.600
1.37E-02,4.800
1.37E-02,4.600
1.37E-02,4.600
1.37E-02,4.600
1.37E-02,4.600
1.37E-02,4.600
1.37E-02,4.800
1.37E-02,5.000
1.37E-02,5.000
1.37E-02,4.800
1.37E-02,4.800
1.37E-02,4.600
1.37E-02,-0.200
1.37E-02,-0.200
1.37E-02,-0.200
1.37E-02,-0.400
1.37E-02,-0.200
1.37E-02,0.000
1.37E-02,0.200
1.37E-02,0.200
1.37E-02,-0.200
1.37E-02,-0.400
1.37E-02,0.000
1.37E-02,-0.200
1.38E-02,0.000
1.38E-02,-0.200
1.38E-02,0.000
1.38E-02,-0.200
1.38E-02,-0.400
1.38E-02,-0.200
1.38E-02,0.000
1.38E-02,-0.200
1.38E-02,-0.200
1.38E-02,-0.400
1.38E-02,-0.200
1.38E-02,-0.200
1.38E-02,-0.200
1.38E-02,4.600
1.38E-02,4.400
1.38E-02,4.800
1.38E-02,4.600
1.38E-02,4.600
1.38E-02,4.600
1.38E-02,4.800
1.38E-02,4.800
1.38E-02,5.000
1.38E-02,5.200
1.38E-02,4.800
1.38E-02,5.000
1.39E-02,4.600
1.39E-02,5.000
1.39E-02,4.600
1.39E-02,4.800
1.39E-02,4.800
1.39E-02,4.800
1.39E-02,4.600
1.39E-02,4.600
1.39E-02,5.000
1.39E-02,4.800
1.39E-02,4.600
1.39E-02,5.000
1.39E-02,4.600
1.39E-02,4.800
1.39E-02,4.600
1.39E-02,4.400
1.39E-02,0.000
1.39E-02,-0.200
1.39E-02,0.200
1.39E-02,-0.200
1.39E-02,-0.400
1.39E-02,0.000
1.39E-02,0.000
1.39E-02,-0.200
1.39E-02,-0.400
1.40E-02,-0.200
1.40E-02,-0.200
1.40E-02,-0.400
1.40E-02,0.000
1.40E-02,0.000
1.40E-02,-0.400
1.40E-02,-0.400
1.40E-02,-0.400
1.40E-02,-0.200
1.40E-02,-0.200
1.40E-02,-0.400
1.40E-02,-0.200
1.40E-02,-0.200
1.40E-02,-0.400
1.40E-02,0.200
1.40E-02,0.000
1.40E-02,4.600
1.40E-02,4.600
1.40E-02,4.600
1.40E-02,4.800
1.40E-02,4.800
1.40E-02,4.400
1.40E-02,4.400
1.40E-02,4.600
1.40E-02,5.000
1.41E-02,5.000
1.41E-02,4.600
1.41E-02,4.400
1.41E-02,4.400
1.41E-02,4.400
1.41E-02,4.400
1.41E-02,4.800
1.41E-02,4.600
1.41E-02,4.800
1.41E-02,5.200
1.41E-02,4.600
1.41E-02,4.600
1.41E-02,4.800
1.41E-02,4.600
1.41E-02,4.800
1.41E-02,4.800
1.41E-02,4.800
1.41E-02,-0.400
1.41E-02,-0.400
1.41E-02,0.000
1.41E-02,0.000
1.41E-02,-0.400
1.41E-02,0.400
1.41E-02,-0.400
1.41E-02,0.000
1.42E-02,0.000
1.42E-02,-0.200
1.42E-02,0.000
1.42E-02,-0.400
1.42E-02,0.200
1.42E-02,-0.400
1.42E-02,-0.200
1.42E-02,0.000
1.42E-02,-0.600
1.42E-02,-0.200
1.42E-02,-0.400
1.42E-02,0.000
1.42E-02,0.000
1.42E-02,-0.400
1.42E-02,-0.200
1.42E-02,0.000
1.42E-02,0.000
1.42E-02,0.000
1.42E-02,4.400
1.42E-02,4.400
1.42E-02,4.600
1.42E-02,4.600
1.42E-02,4.600
1.42E-02,4.600
1.42E-02,4.800
1.43E-02,4.600
1.43E-02,4.600
1.43E-02,4.600
1.43E-02,4.600
1.43E-02,4.600
1.43E-02,4.600
1.43E-02,4.800
1.43E-02,4.800
1.43E-02,4.600
1.43E-02,4.200
1.43E-02,4.800
1.43E-02,4.600
1.43E-02,4.800
1.43E-02,4.400
1.43E-02,4.600
1.43E-02,4.800
1.43E-02,4.600
1.43E-02,4.800
1.43E-02,4.600
1.43E-02,-0.200
1.43E-02,-0.200
1.43E-02,0.000
1.43E-02,-0.600
1.43E-02,0.000
1.43E-02,-0.600
1.44E-02,0.000
1.44E-02,-0.400
1.44E-02,-0.200
1.44E-02,-0.200
1.44E-02,-0.200
1.44E-02,0.200
1.44E-02,-0.400
1.44E-02,0.000
1.44E-02,-0.400
1.44E-02,0.000
1.44E-02,-0.200
1.44E-02,-0.400
1.44E-02,-0.400
1.44E-02,-0.400
1.44E-02,-0.200
1.44E-02,-0.200
1.44E-02,-0.200
1.44E-02,0.000
1.44E-02,-0.200
1.44E-02,4.400
1.44E-02,4.600
1.44E-02,4.600
1.44E-02,4.600
1.44E-02,4.800
1.44E-02,4.800
1.45E-02,4.600
1.45E-02,4.600
1.45E-02,4.800
1.45E-02,4.800
1.45E-02,4.800
1.45E-02,4.800
1.45E-02,4.600
1.45E-02,4.600
1.45E-02,5.000
1.45E-02,4.600
1.45E-02,4.400
1.45E-02,4.600
1.45E-02,4.600
1.45E-02,4.600
1.45E-02,4.800
1.45E-02,4.600
1.45E-02,4.600
1.45E-02,4.400
1.45E-02,4.600
1.45E-02,4.600
1.45E-02,-0.400
1.45E-02,-0.200
1.45E-02,-0.200
1.45E-02,-0.200
1.45E-02,0.000
1.46E-02,-0.200
1.46E-02,0.000
1.46E-02,-0.200
1.46E-02,-0.200
1.46E-02,0.000
1.46E-02,0.000
1.46E-02,-0.200
1.46E-02,-0.200
1.46E-02,-0.600
1.46E-02,-0.200
1.46E-02,-0.200
1.46E-02,-0.400
1.46E-02,0.200
1.46E-02,-0.600
1.46E-02,-0.400
1.46E-02,-0.200
1.46E-02,-0.400
1.46E-02,-0.200
1.46E-02,-0.200
1.46E-02,-0.400
1.46E-02,-0.200
1.46E-02,4.600
1.46E-02,4.600
1.46E-02,4.600
1.46E-02,4.600
1.47E-02,4.600
1.47E-02,4.400
1.47E-02,4.400
1.47E-02,4.600
1.47E-02,4.600
1.47E-02,4.600
1.47E-02,4.600
1.47E-02,4.600
1.47E-02,4.600
1.47E-02,4.800
1.47E-02,4.600
1.47E-02,5.000
1.47E-02,4.600
1.47E-02,4.800
1.47E-02,5.400
1.47E-02,4.600
1.47E-02,4.600
1.47E-02,5.200
1.47E-02,5.000
1.47E-02,4.800
1.47E-02,4.400
1.47E-02,4.600
1.47E-02,-0.200
1.47E-02,-0.200
1.47E-02,0.000
1.48E-02,-0.400
1.48E-02,-0.200
1.48E-02,0.000
1.48E-02,-0.400
1.48E-02,-0.400
1.48E-02,-0.200
1.48E-02,-0.200
1.48E-02,0.000
1.48E-02,-0.400
1.48E-02,0.000
1.48E-02,-0.200
1.48E-02,-0.200
1.48E-02,-0.200
1.48E-02,0.000
1.48E-02,0.000
1.48E-02,0.200
1.48E-02,0.000
1.48E-02,0.200
1.48E-02,-0.200
1.48E-02,-0.200
1.48E-02,0.000
1.48E-02,0.000
1.48E-02,4.600
1.48E-02,4.800
1.48E-02,4.800
1.49E-02,4.600
1.49E-02,4.400
1.49E-02,4.800
1.49E-02,4.800
1.49E-02,4.600
1.49E-02,4.800
1.49E-02,4.800
1.49E-02,4.600
1.49E-02,5.000
1.49E-02,4.400
1.49E-02,4.400
1.49E-02,4.400
1.49E-02,4.800
1.49E-02,4.600
1.49E-02,4.600
1.49E-02,4.800
1.49E-02,4.600
1.49E-02,4.800
1.49E-02,4.800
1.49E-02,4.600
1.49E-02,4.600
1.49E-02,5.000
1.49E-02,4.600
1.49E-02,4.800
1.49E-02,4.800
1.50E-02,0.000
1.50E-02,0.000
1.50E-02,0.000
1.50E-02,0.000
1.50E-02,-0.400
1.50E-02,-0.400
1.50E-02,0.000
1.50E-02,-0.400
1.50E-02,-0.400
1.50E-02,-0.400
1.50E-02,0.200
1.50E-02,0.000
1.50E-02,0.000
1.50E-02,-0.200
1.50E-02,-0.200
1.50E-02,-0.200
1.50E-02,-0.200
1.50E-02,-0.200
1.50E-02,-0.200
1.50E-02,0.000
1.50E-02,-0.400
1.50E-02,-0.200
1.50E-02,-0.200
1.50E-02,-0.200
1.50E-02,0.000
1.51E-02,4.400
1.51E-02,4.600
1.51E-02,4.600
1.51E-02,4.600
1.51E-02,4.600
1.51E-02,4.600
1.51E-02,4.600
1.51E-02,4.800
1.51E-02,4.600
1.51E-02,5.200
1.51E-02,4.600
1.51E-02,4.600
1.51E-02,4.800
1.51E-02,4.600
1.51E-02,4.800
1.51E-02,4.600
1.51E-02,5.000
1.51E-02,4.600
1.51E-02,4.600
1.51E-02,4.600
1.51E-02,4.600
1.51E-02,4.800
1.51E-02,4.600
1.51E-02,5.000
1.51E-02,4.800
1.52E-02,4.800
1.52E-02,-0.200
1.52E-02,-0.400
1.52E-02,-0.200
1.52E-02,-0.200
1.52E-02,0.000
1.52E-02,0.000
1.52E-02,0.000
1.52E-02,0.000
1.52E-02,-0.200
1.52E-02,-0.200
1.52E-02,-0.400
1.52E-02,-0.200
1.52E-02,-0.400
1.52E-02,-0.200
1.52E-02,0.200
1.52E-02,0.200
1.52E-02,0.000
1.52E-02,0.200
1.52E-02,-0.400
1.52E-02,-0.200
1.52E-02,0.000
1.52E-02,-0.200
1.52E-02,0.000
1.52E-02,-0.200
1.53E-02,0.200
1.53E-02,0.000
1.53E-02,4.800
1.53E-02,4.400
1.53E-02,4.600
1.53E-02,4.800
1.53E-02,4.600
1.53E-02,4.600
1.53E-02,4.800
1.53E-02,4.600
1.53E-02,4.600
1.53E-02,4.600
1.53E-02,4.800
1.53E-02,4.800
1.53E-02,4.600
1.53E-02,4.800
1.53E-02,4.600
1.53E-02,4.600
1.53E-02,4.800
1.53E-02,4.600
1.53E-02,4.600
1.53E-02,4.800
1.53E-02,4.600
1.53E-02,5.000
1.53E-02,4.600
1.54E-02,4.400
1.54E-02,4.600
1.54E-02,4.600
1.54E-02,0.000
1.54E-02,-0.200
1.54E-02,-0.200
1.54E-02,0.000
1.54E-02,0.000
1.54E-02,-0.200
1.54E-02,-0.400
1.54E-02,-0.200
1.54E-02,-0.200
1.54E-02,-0.400
1.54E-02,-0.200
1.54E-02,-0.200
1.54E-02,-0.400
1.54E-02,-0.200
1.54E-02,-0.200
1.54E-02,-0.400
1.54E-02,-0.200
1.54E-02,-0.400
1.54E-02,0.200
1.54E-02,0.000
1.54E-02,0.000
1.54E-02,-0.600
1.55E-02,0.000
1.55E-02,-0.200
1.55E-02,0.000
1.55E-02,4.600
1.55E-02,5.000
1.55E-02,4.600
1.55E-02,4.800
1.55E-02,4.800
1.55E-02,4.600
1.55E-02,4.600
1.55E-02,4.600
1.55E-02,5.000
1.55E-02,4.600
1.55E-02,4.400
1.55E-02,4.600
1.55E-02,4.800
1.55E-02,4.600
1.55E-02,4.800
1.55E-02,4.600
1.55E-02,4.600
1.55E-02,5.000
1.55E-02,4.800
1.55E-02,4.600
1.55E-02,5.000
1.55E-02,4.600
1.56E-02,4.800
1.56E-02,4.800
1.56E-02,4.800
1.56E-02,4.800
1.56E-02,-0.200
1.56E-02,-0.200
1.56E-02,0.000
1.56E-02,-0.400
1.56E-02,-0.400
1.56E-02,0.200
1.56E-02,-0.200
1.56E-02,-0.400
1.56E-02,-0.400
1.56E-02,-0.400
1.56E-02,-0.200
1.56E-02,0.000
1.56E-02,-0.400
1.56E-02,-0.200
1.56E-02,-0.200
1.56E-02,0.000
1.56E-02,-0.400
1.56E-02,-0.400
1.56E-02,-0.400
1.56E-02,0.000
1.56E-02,-0.200
1.57E-02,-0.200
1.57E-02,-0.200
1.57E-02,-0.200
1.57E-02,-0.200
1.57E-02,0.200
1.57E-02,4.600
1.57E-02,4.600
1.57E-02,4.600
1.57E-02,4.600
1.57E-02,5.000
1.57E-02,4.800
1.57E-02,4.800
1.57E-02,5.200
1.57E-02,4.600
1.57E-02,5.000
1.57E-02,4.400
1.57E-02,4.400
1.57E-02,4.400
1.57E-02,4.600
1.57E-02,4.600
1.57E-02,4.400
1.57E-02,4.600
1.57E-02,4.800
1.57E-02,4.800
1.57E-02,4.600
1.58E-02,4.600
1.58E-02,4.600
1.58E-02,4.600
1.58E-02,4.800
1.58E-02,5.000
1.58E-02,4.800
1.58E-02,0.000
1.58E-02,0.000
1.58E-02,-0.200
1.58E-02,-0.200
1.58E-02,-0.200
1.58E-02,0.000
1.58E-02,-0.200
1.58E-02,-0.200
1.58E-02,-0.400
1.58E-02,0.000
1.58E-02,0.000
1.58E-02,-0.400
1.58E-02,-0.200
1.58E-02,-0.200
1.58E-02,-0.200
1.58E-02,-0.400
1.58E-02,-0.200
1.58E-02,0.000
1.58E-02,-0.400
1.59E-02,-0.400
1.59E-02,-0.400
1.59E-02,0.000
1.59E-02,0.000
1.59E-02,-0.400
1.59E-02,-0.200
1.59E-02,4.400
1.59E-02,4.800
1.59E-02,5.000
1.59E-02,4.800
1.59E-02,4.600
1.59E-02,4.600
1.59E-02,4.800
1.59E-02,4.800
1.59E-02,4.600
1.59E-02,5.000
1.59E-02,4.800
1.59E-02,4.600
1.59E-02,4.600
1.59E-02,4.600
1.59E-02,5.200
1.59E-02,4.600
1.59E-02,4.600
1.59E-02,4.600
1.59E-02,4.800
1.60E-02,4.800
1.60E-02,4.800
1.60E-02,4.800
1.60E-02,4.600
1.60E-02,4.400
1.60E-02,4.600
1.60E-02,4.600
1.60E-02,4.600
1.60E-02,4.600
1.60E-02,0.200
1.60E-02,-0.600
1.60E-02,-0.200
1.60E-02,-0.200
1.60E-02,0.200
1.60E-02,0.000
1.60E-02,-0.200
1.60E-02,0.000
1.60E-02,0.200
1.60E-02,-0.200
1.60E-02,-0.200
1.60E-02,0.000
1.60E-02,0.000
1.60E-02,-0.400
1.60E-02,-0.400
1.60E-02,0.000
1.61E-02,-0.200
1.61E-02,0.000
1.61E-02,-0.400
1.61E-02,-0.400
1.61E-02,0.000
1.61E-02,-0.400
1.61E-02,-0.200
1.61E-02,-0.200
1.61E-02,-0.400
1.61E-02,5.400
1.61E-02,4.600
1.61E-02,4.400
1.61E-02,4.600
1.61E-02,4.600
1.61E-02,4.800
1.61E-02,4.600
1.61E-02,4.800
1.61E-02,4.800
1.61E-02,4.600
1.61E-02,4.600
1.61E-02,4.600
1.61E-02,4.600
1.61E-02,4.800
1.61E-02,4.600
1.61E-02,5.000
1.62E-02,4.800
1.62E-02,4.600
1.62E-02,4.600
1.62E-02,4.600
1.62E-02,4.400
1.62E-02,4.200
1.62E-02,4.600
1.62E-02,4.400
1.62E-02,5.000
1.62E-02,4.400
1.62E-02,-0.400
1.62E-02,0.000
1.62E-02,0.000
1.62E-02,-0.200
1.62E-02,-0.200
1.62E-02,-0.200
1.62E-02,-0.200
1.62E-02,-0.200
1.62E-02,-0.200
1.62E-02,0.000
1.62E-02,-0.200
1.62E-02,0.200
1.62E-02,-0.400
1.62E-02,-0.200
1.62E-02,0.000
1.63E-02,0.000
1.63E-02,0.000
