#flipflop between high and low with a delay of 100us between changes
#timebase=800000000(ps)
,#voltbase=1000000(mv/100)
#size=4064
4.00E-06,4.800
8.00E-06,4.800
1.20E-05,4.800
1.60E-05,4.840
2.00E-05,4.840
2.40E-05,4.840
2.80E-05,4.720
3.20E-05,0.080
3.60E-05,0.000
4.00E-05,0.080
4.40E-05,0.080
4.80E-05,0.040
5.20E-05,0.040
5.60E-05,0.000
6.00E-05,0.040
6.40E-05,0.040
6.80E-05,0.040
7.20E-05,0.080
7.60E-05,0.000
8.00E-05,0.040
8.40E-05,0.000
8.80E-05,0.040
9.20E-05,0.040
9.60E-05,0.080
1.00E-04,0.000
1.04E-04,0.040
1.08E-04,0.040
1.12E-04,0.040
1.16E-04,0.000
1.20E-04,0.040
1.24E-04,0.000
1.28E-04,0.040
1.32E-04,4.760
1.36E-04,4.760
1.40E-04,4.760
1.44E-04,4.840
1.48E-04,4.840
1.52E-04,4.840
1.56E-04,4.840
1.60E-04,4.760
1.64E-04,4.760
1.68E-04,4.800
1.72E-04,4.760
1.76E-04,4.720
1.80E-04,4.800
1.84E-04,4.840
1.88E-04,4.840
1.92E-04,4.760
1.96E-04,4.760
2.00E-04,4.800
2.04E-04,4.760
2.08E-04,4.800
2.12E-04,4.760
2.16E-04,4.800
2.20E-04,4.800
2.24E-04,4.800
2.28E-04,4.840
2.32E-04,4.800
2.36E-04,4.800
2.40E-04,4.800
2.44E-04,0.040
2.48E-04,0.000
2.52E-04,0.000
2.56E-04,0.040
2.60E-04,0.040
2.64E-04,0.000
2.68E-04,0.000
2.72E-04,0.040
2.76E-04,-0.040
2.80E-04,0.040
2.84E-04,0.040
2.88E-04,0.040
2.92E-04,0.040
2.96E-04,0.040
3.00E-04,0.000
3.04E-04,-0.040
3.08E-04,0.040
3.12E-04,0.040
3.16E-04,0.040
3.20E-04,0.040
3.24E-04,0.040
3.28E-04,0.040
3.32E-04,0.040
3.36E-04,0.000
3.40E-04,0.000
3.44E-04,4.800
3.48E-04,4.800
3.52E-04,4.800
3.56E-04,4.840
3.60E-04,4.800
3.64E-04,4.760
3.68E-04,4.800
3.72E-04,4.760
3.76E-04,4.800
3.80E-04,4.840
3.84E-04,4.760
3.88E-04,4.760
3.92E-04,4.800
3.96E-04,4.760
4.00E-04,4.800
4.04E-04,4.800
4.08E-04,4.800
4.12E-04,4.840
4.16E-04,4.800
4.20E-04,4.760
4.24E-04,4.800
4.28E-04,4.760
4.32E-04,4.800
4.36E-04,4.840
4.40E-04,4.760
4.44E-04,4.760
4.48E-04,-0.040
4.52E-04,0.040
4.56E-04,0.040
4.60E-04,0.040
4.64E-04,0.040
4.68E-04,0.040
4.72E-04,0.000
4.76E-04,0.040
4.80E-04,0.000
4.84E-04,0.040
4.88E-04,0.000
4.92E-04,0.000
4.96E-04,0.040
5.00E-04,0.040
5.04E-04,0.040
5.08E-04,0.040
5.12E-04,0.040
5.16E-04,0.000
5.20E-04,0.000
5.24E-04,0.040
5.28E-04,0.000
5.32E-04,0.040
5.36E-04,0.000
5.40E-04,0.040
5.44E-04,0.000
5.48E-04,0.040
5.52E-04,4.840
5.56E-04,4.760
5.60E-04,4.800
5.64E-04,4.840
5.68E-04,4.800
5.72E-04,4.760
5.76E-04,4.800
5.80E-04,4.800
5.84E-04,4.840
5.88E-04,4.800
5.92E-04,4.840
5.96E-04,4.840
6.00E-04,4.760
6.04E-04,4.800
6.08E-04,4.840
6.12E-04,4.800
6.16E-04,4.840
6.20E-04,4.840
6.24E-04,4.840
6.28E-04,4.840
6.32E-04,4.840
6.36E-04,4.840
6.40E-04,4.800
6.44E-04,4.760
6.48E-04,4.760
6.52E-04,4.800
6.56E-04,0.040
6.60E-04,0.080
6.64E-04,0.000
6.68E-04,0.040
6.72E-04,0.040
6.76E-04,0.040
6.80E-04,0.080
6.84E-04,0.040
6.88E-04,0.000
6.92E-04,0.040
6.96E-04,0.040
7.00E-04,0.000
7.04E-04,0.040
7.08E-04,0.040
7.12E-04,0.000
7.16E-04,0.000
7.20E-04,0.040
7.24E-04,0.040
7.28E-04,0.000
7.32E-04,0.000
7.36E-04,0.040
7.40E-04,0.040
7.44E-04,0.000
7.48E-04,0.040
7.52E-04,0.040
7.56E-04,4.760
7.60E-04,4.760
7.64E-04,4.720
7.68E-04,4.800
7.72E-04,4.800
7.76E-04,4.840
7.80E-04,4.800
7.84E-04,4.760
7.88E-04,4.800
7.92E-04,4.760
7.96E-04,4.760
8.00E-04,4.800
8.04E-04,4.800
8.08E-04,4.800
8.12E-04,4.760
8.16E-04,4.760
8.20E-04,4.800
8.24E-04,4.760
8.28E-04,4.760
8.32E-04,4.800
8.36E-04,4.760
8.40E-04,4.800
8.44E-04,4.800
8.48E-04,4.840
8.52E-04,4.800
8.56E-04,4.760
8.60E-04,0.040
8.64E-04,0.000
8.68E-04,0.040
8.72E-04,0.040
8.76E-04,0.000
8.80E-04,0.000
8.84E-04,0.040
8.88E-04,0.040
8.92E-04,0.000
8.96E-04,0.040
9.00E-04,0.040
9.04E-04,0.000
9.08E-04,0.000
9.12E-04,0.040
9.16E-04,0.040
9.20E-04,0.040
9.24E-04,0.040
9.28E-04,0.000
9.32E-04,0.040
9.36E-04,0.000
9.40E-04,0.040
9.44E-04,-0.040
9.48E-04,0.000
9.52E-04,0.040
9.56E-04,0.000
9.60E-04,0.000
9.64E-04,4.760
9.68E-04,4.800
9.72E-04,4.800
9.76E-04,4.840
9.80E-04,4.800
9.84E-04,4.760
9.88E-04,4.800
9.92E-04,4.760
9.96E-04,4.800
1.00E-03,4.800
1.00E-03,4.840
1.01E-03,4.800
1.01E-03,4.800
1.02E-03,4.840
1.02E-03,4.800
1.02E-03,4.760
1.03E-03,4.800
1.03E-03,4.800
1.04E-03,4.840
1.04E-03,4.800
1.04E-03,4.840
1.05E-03,4.760
1.05E-03,4.760
1.06E-03,4.800
1.06E-03,4.760
1.06E-03,4.800
1.07E-03,0.000
1.07E-03,0.000
1.08E-03,0.040
1.08E-03,0.040
1.08E-03,0.040
1.09E-03,0.040
1.09E-03,0.040
1.10E-03,0.000
1.10E-03,0.000
1.10E-03,0.040
1.11E-03,0.040
1.11E-03,0.000
1.12E-03,0.040
1.12E-03,0.000
1.12E-03,0.000
1.13E-03,0.040
1.13E-03,0.040
1.14E-03,0.040
1.14E-03,0.000
1.14E-03,0.040
1.15E-03,0.000
1.15E-03,0.040
1.16E-03,0.000
1.16E-03,0.000
1.16E-03,0.040
1.17E-03,4.800
1.17E-03,4.840
1.18E-03,4.760
1.18E-03,4.760
1.18E-03,4.800
1.19E-03,4.760
1.19E-03,4.800
1.20E-03,4.760
1.20E-03,4.800
1.20E-03,4.760
1.21E-03,4.760
1.21E-03,4.800
1.22E-03,4.800
1.22E-03,4.840
1.22E-03,4.800
1.23E-03,4.760
1.23E-03,4.760
1.24E-03,4.800
1.24E-03,4.760
1.24E-03,4.840
1.25E-03,4.800
1.25E-03,4.760
1.26E-03,4.760
1.26E-03,4.800
1.26E-03,4.760
1.27E-03,4.800
1.27E-03,4.760
1.28E-03,4.760
1.28E-03,0.000
1.28E-03,0.040
1.29E-03,0.040
1.29E-03,0.040
1.30E-03,0.040
1.30E-03,0.040
1.30E-03,0.000
1.31E-03,0.040
1.31E-03,0.040
1.32E-03,0.040
1.32E-03,0.040
1.32E-03,0.080
1.33E-03,0.040
1.33E-03,0.040
1.34E-03,0.040
1.34E-03,0.040
1.34E-03,0.040
1.35E-03,0.040
1.35E-03,0.000
1.36E-03,0.000
1.36E-03,0.040
1.36E-03,0.000
1.37E-03,0.040
1.37E-03,0.040
1.38E-03,0.040
1.38E-03,4.800
1.38E-03,4.760
1.39E-03,4.760
1.39E-03,4.760
1.40E-03,4.840
1.40E-03,4.800
1.40E-03,4.800
1.41E-03,4.800
1.41E-03,4.800
1.42E-03,4.800
1.42E-03,4.760
1.42E-03,4.840
1.43E-03,4.760
1.43E-03,4.760
1.44E-03,4.760
1.44E-03,4.720
1.44E-03,4.720
1.45E-03,4.800
1.45E-03,4.840
1.46E-03,4.760
1.46E-03,4.800
1.46E-03,4.800
1.47E-03,4.800
1.47E-03,4.800
1.48E-03,4.840
1.48E-03,4.760
1.48E-03,0.040
1.49E-03,0.040
1.49E-03,0.040
1.50E-03,0.000
1.50E-03,0.000
1.50E-03,0.040
1.51E-03,0.080
1.51E-03,0.000
1.52E-03,0.040
1.52E-03,0.080
1.52E-03,0.000
1.53E-03,0.000
1.53E-03,0.040
1.54E-03,0.000
1.54E-03,0.000
1.54E-03,0.040
1.55E-03,0.000
1.55E-03,0.000
1.56E-03,0.040
1.56E-03,0.040
1.56E-03,0.000
1.57E-03,0.000
1.57E-03,0.040
1.58E-03,0.000
1.58E-03,0.040
1.58E-03,0.040
1.59E-03,4.800
1.59E-03,4.760
1.60E-03,4.840
1.60E-03,4.800
1.60E-03,4.800
1.61E-03,4.800
1.61E-03,4.840
1.62E-03,4.800
1.62E-03,4.840
1.62E-03,4.840
1.63E-03,4.760
1.63E-03,4.760
1.64E-03,4.840
1.64E-03,4.800
1.64E-03,4.760
1.65E-03,4.760
1.65E-03,4.800
1.66E-03,4.840
1.66E-03,4.760
1.66E-03,4.800
1.67E-03,4.840
1.67E-03,4.800
1.68E-03,4.760
1.68E-03,4.800
1.68E-03,4.760
1.69E-03,4.800
1.69E-03,0.000
1.70E-03,-0.040
1.70E-03,0.040
1.70E-03,0.000
1.71E-03,0.040
1.71E-03,0.040
1.72E-03,0.000
1.72E-03,0.040
1.72E-03,0.040
1.73E-03,0.040
1.73E-03,0.000
1.74E-03,0.040
1.74E-03,0.040
1.74E-03,0.000
1.75E-03,0.040
1.75E-03,0.040
1.76E-03,0.000
1.76E-03,0.040
1.76E-03,0.000
1.77E-03,0.000
1.77E-03,0.040
1.78E-03,0.040
1.78E-03,0.040
1.78E-03,0.040
1.79E-03,0.040
1.79E-03,4.840
1.80E-03,4.800
1.80E-03,4.840
1.80E-03,4.800
1.81E-03,4.760
1.81E-03,4.800
1.82E-03,4.840
1.82E-03,4.840
1.82E-03,4.760
1.83E-03,4.760
1.83E-03,4.800
1.84E-03,4.760
1.84E-03,4.800
1.84E-03,4.840
1.85E-03,4.760
1.85E-03,4.800
1.86E-03,4.800
1.86E-03,4.800
1.86E-03,4.800
1.87E-03,4.800
1.87E-03,4.800
1.88E-03,4.800
1.88E-03,4.840
1.88E-03,4.800
1.89E-03,4.760
1.89E-03,4.760
1.90E-03,-0.040
1.90E-03,0.040
1.90E-03,0.040
1.91E-03,0.000
1.91E-03,0.040
1.92E-03,0.040
1.92E-03,0.080
1.92E-03,0.000
1.93E-03,0.000
1.93E-03,0.040
1.94E-03,0.040
1.94E-03,0.040
1.94E-03,0.040
1.95E-03,0.040
1.95E-03,0.000
1.96E-03,0.040
1.96E-03,0.040
1.96E-03,0.000
1.97E-03,0.000
1.97E-03,0.040
1.98E-03,0.040
1.98E-03,0.000
1.98E-03,0.000
1.99E-03,0.040
1.99E-03,0.040
2.00E-03,0.040
2.00E-03,4.800
2.00E-03,4.760
2.01E-03,4.800
2.01E-03,4.720
2.02E-03,4.800
2.02E-03,4.720
2.02E-03,4.760
2.03E-03,4.760
2.03E-03,4.800
2.04E-03,4.760
2.04E-03,4.840
2.04E-03,4.760
2.05E-03,4.760
2.05E-03,4.800
2.06E-03,4.800
2.06E-03,4.800
2.06E-03,4.800
2.07E-03,4.840
2.07E-03,4.800
2.08E-03,4.800
2.08E-03,4.840
2.08E-03,4.760
2.09E-03,4.760
2.09E-03,4.760
2.10E-03,4.760
2.10E-03,4.800
2.10E-03,0.040
2.11E-03,0.040
2.11E-03,0.040
2.12E-03,0.000
2.12E-03,0.040
2.12E-03,0.040
2.13E-03,0.000
2.13E-03,0.040
2.14E-03,0.040
2.14E-03,0.000
2.14E-03,0.000
2.15E-03,0.040
2.15E-03,0.040
2.16E-03,0.040
2.16E-03,0.080
2.16E-03,0.040
2.17E-03,0.040
2.17E-03,0.040
2.18E-03,0.000
2.18E-03,0.040
2.18E-03,0.040
2.19E-03,0.000
2.19E-03,0.040
2.20E-03,0.000
2.20E-03,0.000
2.20E-03,4.840
2.21E-03,4.760
2.21E-03,4.800
2.22E-03,4.840
2.22E-03,4.760
2.22E-03,4.800
2.23E-03,4.720
2.23E-03,4.720
2.24E-03,4.760
2.24E-03,4.760
2.24E-03,4.800
2.25E-03,4.840
2.25E-03,4.760
2.26E-03,4.800
2.26E-03,4.800
2.26E-03,4.800
2.27E-03,4.720
2.27E-03,4.800
2.28E-03,4.720
2.28E-03,4.800
2.28E-03,4.760
2.29E-03,4.800
2.29E-03,4.720
2.30E-03,4.720
2.30E-03,4.760
2.30E-03,4.760
2.31E-03,4.800
2.31E-03,4.840
2.32E-03,0.040
2.32E-03,0.040
2.32E-03,0.040
2.33E-03,0.080
2.33E-03,0.000
2.34E-03,0.000
2.34E-03,0.040
2.34E-03,0.040
2.35E-03,0.000
2.35E-03,0.080
2.36E-03,0.040
2.36E-03,0.040
2.36E-03,0.040
2.37E-03,0.000
2.37E-03,0.000
2.38E-03,0.040
2.38E-03,0.040
2.38E-03,0.000
2.39E-03,0.000
2.39E-03,0.000
2.40E-03,0.040
2.40E-03,0.000
2.40E-03,0.040
2.41E-03,0.040
2.41E-03,0.000
2.42E-03,4.840
2.42E-03,4.800
2.42E-03,4.840
2.43E-03,4.840
2.43E-03,4.760
2.44E-03,4.720
2.44E-03,4.800
2.44E-03,4.760
2.45E-03,4.800
2.45E-03,4.840
2.46E-03,4.800
2.46E-03,4.760
2.46E-03,4.800
2.47E-03,4.800
2.47E-03,4.840
2.48E-03,4.800
2.48E-03,4.800
2.48E-03,4.840
2.49E-03,4.800
2.49E-03,4.760
2.50E-03,4.880
2.50E-03,4.800
2.50E-03,4.800
2.51E-03,4.800
2.51E-03,4.840
2.52E-03,4.800
2.52E-03,0.040
2.52E-03,0.000
2.53E-03,0.040
2.53E-03,0.040
2.54E-03,0.000
2.54E-03,0.000
2.54E-03,0.040
2.55E-03,0.040
2.55E-03,0.040
2.56E-03,0.040
2.56E-03,0.040
2.56E-03,0.040
2.57E-03,0.040
2.57E-03,0.000
2.58E-03,-0.040
2.58E-03,0.040
2.58E-03,0.040
2.59E-03,0.000
2.59E-03,0.000
2.60E-03,0.040
2.60E-03,0.040
2.60E-03,0.000
2.61E-03,0.000
2.61E-03,0.040
2.62E-03,0.040
2.62E-03,0.000
2.62E-03,4.840
2.63E-03,4.760
2.63E-03,4.800
2.64E-03,4.840
2.64E-03,4.800
2.64E-03,4.760
2.65E-03,4.800
2.65E-03,4.760
2.66E-03,4.760
2.66E-03,4.800
2.66E-03,4.760
2.67E-03,4.720
2.67E-03,4.800
2.68E-03,4.760
2.68E-03,4.760
2.68E-03,4.800
2.69E-03,4.840
2.69E-03,4.760
2.70E-03,4.760
2.70E-03,4.800
2.70E-03,4.800
2.71E-03,4.800
2.71E-03,4.800
2.72E-03,4.800
2.72E-03,4.800
2.72E-03,4.760
2.73E-03,0.040
2.73E-03,0.000
2.74E-03,0.040
2.74E-03,0.040
2.74E-03,0.080
2.75E-03,0.040
2.75E-03,0.040
2.76E-03,0.040
2.76E-03,0.000
2.76E-03,0.000
2.77E-03,0.040
2.77E-03,0.040
2.78E-03,0.000
2.78E-03,0.000
2.78E-03,0.080
2.79E-03,0.040
2.79E-03,0.040
2.80E-03,0.040
2.80E-03,0.000
2.80E-03,0.000
2.81E-03,0.040
2.81E-03,0.000
2.82E-03,0.000
2.82E-03,0.040
2.82E-03,0.040
2.83E-03,4.720
2.83E-03,4.800
2.84E-03,4.760
2.84E-03,4.800
2.84E-03,4.760
2.85E-03,4.800
2.85E-03,4.800
2.86E-03,4.760
2.86E-03,4.760
2.86E-03,4.800
2.87E-03,4.760
2.87E-03,4.760
2.88E-03,4.800
2.88E-03,4.760
2.88E-03,4.800
2.89E-03,4.840
2.89E-03,4.840
2.90E-03,4.760
2.90E-03,4.760
2.90E-03,4.800
2.91E-03,4.760
2.91E-03,4.760
2.92E-03,4.800
2.92E-03,4.760
2.92E-03,4.800
2.93E-03,4.840
2.93E-03,0.040
2.94E-03,0.040
2.94E-03,0.040
2.94E-03,0.080
2.95E-03,0.040
2.95E-03,0.000
2.96E-03,0.040
2.96E-03,0.000
2.96E-03,0.000
2.97E-03,0.040
2.97E-03,0.040
2.98E-03,0.040
2.98E-03,0.000
2.98E-03,0.080
2.99E-03,0.000
2.99E-03,0.000
3.00E-03,0.040
3.00E-03,0.000
3.00E-03,0.000
3.01E-03,0.040
3.01E-03,0.000
3.02E-03,0.080
3.02E-03,0.040
3.02E-03,0.000
3.03E-03,0.080
3.03E-03,0.000
3.04E-03,4.800
3.04E-03,4.800
3.04E-03,4.760
3.05E-03,4.760
3.05E-03,4.840
3.06E-03,4.800
3.06E-03,4.720
3.06E-03,4.760
3.07E-03,4.760
3.07E-03,4.800
3.08E-03,4.760
3.08E-03,4.800
3.08E-03,4.800
3.09E-03,4.800
3.09E-03,4.800
3.10E-03,4.800
3.10E-03,4.800
3.10E-03,4.800
3.11E-03,4.840
3.11E-03,4.800
3.12E-03,4.800
3.12E-03,4.800
3.12E-03,4.800
3.13E-03,4.840
3.13E-03,4.800
3.14E-03,4.760
3.14E-03,0.040
3.14E-03,0.000
3.15E-03,0.000
3.15E-03,0.040
3.16E-03,0.040
3.16E-03,0.000
3.16E-03,0.000
3.17E-03,0.040
3.17E-03,0.040
3.18E-03,0.000
3.18E-03,0.000
3.18E-03,0.040
3.19E-03,0.040
3.19E-03,0.000
3.20E-03,0.000
3.20E-03,0.040
3.20E-03,0.000
3.21E-03,0.040
3.21E-03,0.040
3.22E-03,0.000
3.22E-03,0.040
3.22E-03,0.040
3.23E-03,0.040
3.23E-03,0.040
3.24E-03,0.040
3.24E-03,4.840
3.24E-03,4.800
3.25E-03,4.760
3.25E-03,4.760
3.26E-03,4.800
3.26E-03,4.760
3.26E-03,4.800
3.27E-03,4.800
3.27E-03,4.800
3.28E-03,4.840
3.28E-03,4.800
3.28E-03,4.760
3.29E-03,4.800
3.29E-03,4.840
3.30E-03,4.840
3.30E-03,4.840
3.30E-03,4.840
3.31E-03,4.760
3.31E-03,4.760
3.32E-03,4.800
3.32E-03,4.760
3.32E-03,4.800
3.33E-03,4.760
3.33E-03,4.800
3.34E-03,4.800
3.34E-03,4.800
3.34E-03,4.840
3.35E-03,4.800
3.35E-03,0.040
3.36E-03,0.000
3.36E-03,0.040
3.36E-03,0.000
3.37E-03,0.000
3.37E-03,0.040
3.38E-03,0.040
3.38E-03,0.040
3.38E-03,0.040
3.39E-03,0.040
3.39E-03,0.040
3.40E-03,0.040
3.40E-03,0.000
3.40E-03,0.000
3.41E-03,0.040
3.41E-03,0.040
3.42E-03,0.040
3.42E-03,0.040
3.42E-03,0.040
3.43E-03,0.040
3.43E-03,0.040
3.44E-03,0.000
3.44E-03,0.040
3.44E-03,0.040
3.45E-03,0.040
3.45E-03,4.800
3.46E-03,4.840
3.46E-03,4.800
3.46E-03,4.760
3.47E-03,4.800
3.47E-03,4.800
3.48E-03,4.800
3.48E-03,4.720
3.48E-03,4.800
3.49E-03,4.760
3.49E-03,4.800
3.50E-03,4.840
3.50E-03,4.760
3.50E-03,4.760
3.51E-03,4.800
3.51E-03,4.760
3.52E-03,4.800
3.52E-03,4.800
3.52E-03,4.800
3.53E-03,4.800
3.53E-03,4.760
3.54E-03,4.720
3.54E-03,4.800
3.54E-03,4.760
3.55E-03,4.800
3.55E-03,4.840
3.56E-03,0.040
3.56E-03,0.000
3.56E-03,0.040
3.57E-03,0.040
3.57E-03,0.000
3.58E-03,0.000
3.58E-03,0.040
3.58E-03,0.000
3.59E-03,0.080
3.59E-03,0.000
3.60E-03,0.040
3.60E-03,0.040
3.60E-03,0.000
3.61E-03,0.040
3.61E-03,0.040
3.62E-03,0.000
3.62E-03,0.040
3.62E-03,0.040
3.63E-03,0.000
3.63E-03,0.040
3.64E-03,0.040
3.64E-03,0.000
3.64E-03,0.040
3.65E-03,0.040
3.65E-03,0.040
3.66E-03,0.000
3.66E-03,4.800
3.66E-03,4.720
3.67E-03,4.800
3.67E-03,4.720
3.68E-03,4.720
3.68E-03,4.760
3.68E-03,4.760
3.69E-03,4.760
3.69E-03,4.840
3.70E-03,4.760
3.70E-03,4.760
3.70E-03,4.720
3.71E-03,4.800
3.71E-03,4.800
3.72E-03,4.840
3.72E-03,4.800
3.72E-03,4.760
3.73E-03,4.800
3.73E-03,4.800
3.74E-03,4.800
3.74E-03,4.760
3.74E-03,4.720
3.75E-03,4.800
3.75E-03,4.800
3.76E-03,4.720
3.76E-03,4.720
3.76E-03,0.000
3.77E-03,0.040
3.77E-03,0.000
3.78E-03,0.040
3.78E-03,0.080
3.78E-03,0.040
3.79E-03,0.040
3.79E-03,0.000
3.80E-03,0.040
3.80E-03,0.000
3.80E-03,0.000
3.81E-03,0.040
3.81E-03,0.040
3.82E-03,0.000
3.82E-03,0.040
3.82E-03,0.040
3.83E-03,0.080
3.83E-03,0.040
3.84E-03,0.040
3.84E-03,0.040
3.84E-03,0.000
3.85E-03,0.000
3.85E-03,0.040
3.86E-03,0.040
3.86E-03,0.000
3.86E-03,4.760
3.87E-03,4.840
3.87E-03,4.760
3.88E-03,4.800
3.88E-03,4.840
3.88E-03,4.760
3.89E-03,4.760
3.89E-03,4.800
3.90E-03,4.840
3.90E-03,4.840
3.90E-03,4.840
3.91E-03,4.760
3.91E-03,4.760
3.92E-03,4.800
3.92E-03,4.840
3.92E-03,4.840
3.93E-03,4.760
3.93E-03,4.800
3.94E-03,4.840
3.94E-03,4.800
3.94E-03,4.760
3.95E-03,4.760
3.95E-03,4.760
3.96E-03,4.760
3.96E-03,4.760
3.96E-03,4.800
3.97E-03,0.000
3.97E-03,0.040
3.98E-03,0.000
3.98E-03,0.000
3.98E-03,0.040
3.99E-03,0.040
3.99E-03,0.000
4.00E-03,0.000
4.00E-03,0.040
4.00E-03,0.040
4.01E-03,0.040
4.01E-03,0.040
4.02E-03,0.000
4.02E-03,-0.040
4.02E-03,0.040
4.03E-03,0.040
4.03E-03,0.040
4.04E-03,0.040
4.04E-03,0.000
4.04E-03,-0.040
4.05E-03,0.040
4.05E-03,0.000
4.06E-03,0.040
4.06E-03,0.000
4.06E-03,0.040
4.07E-03,0.000
4.07E-03,4.800
4.08E-03,4.760
4.08E-03,4.760
4.08E-03,4.800
4.09E-03,4.760
4.09E-03,4.800
4.10E-03,4.840
4.10E-03,4.800
4.10E-03,4.720
4.11E-03,4.800
4.11E-03,4.760
4.12E-03,4.800
4.12E-03,4.800
4.12E-03,4.800
4.13E-03,4.800
4.13E-03,4.800
4.14E-03,4.840
4.14E-03,4.800
4.14E-03,4.720
4.15E-03,4.800
4.15E-03,4.760
4.16E-03,4.760
4.16E-03,4.800
4.16E-03,4.840
4.17E-03,4.800
4.17E-03,4.840
4.18E-03,0.040
4.18E-03,0.040
4.18E-03,0.000
4.19E-03,0.040
4.19E-03,0.040
4.20E-03,0.000
4.20E-03,0.000
4.20E-03,0.040
4.21E-03,0.000
4.21E-03,0.000
4.22E-03,0.080
4.22E-03,0.000
4.22E-03,0.040
4.23E-03,0.040
4.23E-03,0.040
4.24E-03,0.040
4.24E-03,0.000
4.24E-03,0.000
4.25E-03,0.040
4.25E-03,0.040
4.26E-03,0.040
4.26E-03,0.000
4.26E-03,0.000
4.27E-03,0.040
4.27E-03,0.000
4.28E-03,4.840
4.28E-03,4.840
4.28E-03,4.760
4.29E-03,4.760
4.29E-03,4.800
4.30E-03,4.800
4.30E-03,4.800
4.30E-03,4.840
4.31E-03,4.800
4.31E-03,4.840
4.32E-03,4.760
4.32E-03,4.800
4.32E-03,4.800
4.33E-03,4.760
4.33E-03,4.760
4.34E-03,4.800
4.34E-03,4.800
4.34E-03,4.800
4.35E-03,4.840
4.35E-03,4.800
4.36E-03,4.800
4.36E-03,4.800
4.36E-03,4.800
4.37E-03,4.800
4.37E-03,4.800
4.38E-03,4.800
4.38E-03,4.760
4.38E-03,4.800
4.39E-03,0.040
4.39E-03,0.040
4.40E-03,0.000
4.40E-03,0.040
4.40E-03,0.000
4.41E-03,0.040
4.41E-03,0.040
4.42E-03,0.040
4.42E-03,0.040
4.42E-03,0.040
4.43E-03,0.040
4.43E-03,0.040
4.44E-03,0.000
4.44E-03,0.040
4.44E-03,0.000
4.45E-03,0.080
4.45E-03,0.000
4.46E-03,0.000
4.46E-03,0.040
4.46E-03,0.000
4.47E-03,0.000
4.47E-03,0.040
4.48E-03,0.040
4.48E-03,0.040
4.48E-03,0.000
4.49E-03,4.800
4.49E-03,4.720
4.50E-03,4.760
4.50E-03,4.720
4.50E-03,4.760
4.51E-03,4.800
4.51E-03,4.760
4.52E-03,4.760
4.52E-03,4.840
4.52E-03,4.760
4.53E-03,4.800
4.53E-03,4.800
4.54E-03,4.800
4.54E-03,4.800
4.54E-03,4.840
4.55E-03,4.760
4.55E-03,4.840
4.56E-03,4.840
4.56E-03,4.840
4.56E-03,4.840
4.57E-03,4.760
4.57E-03,4.760
4.58E-03,4.760
4.58E-03,4.720
4.58E-03,4.760
4.59E-03,4.800
4.59E-03,0.040
4.60E-03,0.040
4.60E-03,0.040
4.60E-03,0.000
4.61E-03,0.040
4.61E-03,0.040
4.62E-03,0.000
4.62E-03,0.040
4.62E-03,0.000
4.63E-03,0.040
4.63E-03,0.040
4.64E-03,0.000
4.64E-03,0.000
4.64E-03,0.080
4.65E-03,0.040
4.65E-03,0.040
4.66E-03,0.040
4.66E-03,0.000
4.66E-03,0.000
4.67E-03,0.040
4.67E-03,0.040
4.68E-03,0.000
4.68E-03,0.040
4.68E-03,0.000
4.69E-03,0.040
4.69E-03,-0.040
4.70E-03,4.800
4.70E-03,4.760
4.70E-03,4.800
4.71E-03,4.760
4.71E-03,4.800
4.72E-03,4.840
4.72E-03,4.800
4.72E-03,4.840
4.73E-03,4.760
4.73E-03,4.760
4.74E-03,4.800
4.74E-03,4.760
4.74E-03,4.760
4.75E-03,4.800
4.75E-03,4.760
4.76E-03,4.800
4.76E-03,4.760
4.76E-03,4.800
4.77E-03,4.840
4.77E-03,4.800
4.78E-03,4.760
4.78E-03,4.800
4.78E-03,4.760
4.79E-03,4.800
4.79E-03,4.840
4.80E-03,4.800
4.80E-03,0.040
4.80E-03,0.040
4.81E-03,0.040
4.81E-03,0.040
4.82E-03,0.040
4.82E-03,0.000
4.82E-03,0.040
4.83E-03,0.040
4.83E-03,0.000
4.84E-03,0.040
4.84E-03,0.040
4.84E-03,0.000
4.85E-03,0.000
4.85E-03,0.040
4.86E-03,0.040
4.86E-03,0.040
4.86E-03,0.040
4.87E-03,0.000
4.87E-03,0.040
4.88E-03,0.040
4.88E-03,0.040
4.88E-03,0.000
4.89E-03,0.000
4.89E-03,0.040
4.90E-03,0.000
4.90E-03,4.680
4.90E-03,4.760
4.91E-03,4.800
4.91E-03,4.800
4.92E-03,4.800
4.92E-03,4.800
4.92E-03,4.800
4.93E-03,4.800
4.93E-03,4.800
4.94E-03,4.800
4.94E-03,4.760
4.94E-03,4.760
4.95E-03,4.800
4.95E-03,4.800
4.96E-03,4.800
4.96E-03,4.800
4.96E-03,4.840
4.97E-03,4.760
4.97E-03,4.800
4.98E-03,4.800
4.98E-03,4.840
4.98E-03,4.800
4.99E-03,4.760
4.99E-03,4.840
5.00E-03,4.800
5.00E-03,4.840
5.00E-03,0.040
5.01E-03,0.040
5.01E-03,0.040
5.02E-03,0.040
5.02E-03,0.040
5.02E-03,0.040
5.03E-03,0.000
5.03E-03,0.000
5.04E-03,0.040
5.04E-03,0.040
5.04E-03,0.000
5.05E-03,0.040
5.05E-03,0.040
5.06E-03,0.040
5.06E-03,0.040
5.06E-03,0.040
5.07E-03,0.040
5.07E-03,0.000
5.08E-03,0.040
5.08E-03,0.000
5.08E-03,0.040
5.09E-03,0.040
5.09E-03,0.040
5.10E-03,0.000
5.10E-03,0.040
5.10E-03,0.000
5.11E-03,4.760
5.11E-03,4.800
5.12E-03,4.800
5.12E-03,4.800
5.12E-03,4.800
5.13E-03,4.720
5.13E-03,4.720
5.14E-03,4.800
5.14E-03,4.760
5.14E-03,4.760
5.15E-03,4.800
5.15E-03,4.800
5.16E-03,4.800
5.16E-03,4.840
5.16E-03,4.800
5.17E-03,4.840
5.17E-03,4.720
5.18E-03,4.720
5.18E-03,4.800
5.18E-03,4.760
5.19E-03,4.800
5.19E-03,4.800
5.20E-03,4.800
5.20E-03,4.800
5.20E-03,4.800
5.21E-03,4.800
5.21E-03,0.040
5.22E-03,0.080
5.22E-03,0.040
5.22E-03,0.000
5.23E-03,0.040
5.23E-03,0.040
5.24E-03,0.000
5.24E-03,0.000
5.24E-03,0.040
5.25E-03,0.080
5.25E-03,0.040
5.26E-03,0.040
5.26E-03,0.000
5.26E-03,0.000
5.27E-03,0.040
5.27E-03,0.040
5.28E-03,0.040
5.28E-03,0.080
5.28E-03,0.040
5.29E-03,0.040
5.29E-03,0.040
5.30E-03,0.040
5.30E-03,0.040
5.30E-03,0.040
5.31E-03,0.040
5.31E-03,4.760
5.32E-03,4.840
5.32E-03,4.800
5.32E-03,4.760
5.33E-03,4.720
5.33E-03,4.800
5.34E-03,4.760
5.34E-03,4.720
5.34E-03,4.800
5.35E-03,4.720
5.35E-03,4.800
5.36E-03,4.800
5.36E-03,4.840
5.36E-03,4.800
5.37E-03,4.840
5.37E-03,4.800
5.38E-03,4.760
5.38E-03,4.800
5.38E-03,4.800
5.39E-03,4.800
5.39E-03,4.800
5.40E-03,4.840
5.40E-03,4.800
5.40E-03,4.760
5.41E-03,4.800
5.41E-03,4.800
5.42E-03,4.840
5.42E-03,4.800
5.42E-03,0.040
5.43E-03,0.000
5.43E-03,0.040
5.44E-03,0.000
5.44E-03,0.040
5.44E-03,0.040
5.45E-03,0.040
5.45E-03,0.040
5.46E-03,0.040
5.46E-03,0.000
5.46E-03,0.040
5.47E-03,0.000
5.47E-03,0.040
5.48E-03,0.000
5.48E-03,0.040
5.48E-03,0.000
5.49E-03,0.040
5.49E-03,0.000
5.50E-03,0.000
5.50E-03,0.000
5.50E-03,0.000
5.51E-03,0.000
5.51E-03,0.000
5.52E-03,0.040
5.52E-03,0.040
5.52E-03,0.040
5.53E-03,4.800
5.53E-03,4.840
5.54E-03,4.800
5.54E-03,4.840
5.54E-03,4.760
5.55E-03,4.800
5.55E-03,4.800
5.56E-03,4.840
5.56E-03,4.800
5.56E-03,4.760
5.57E-03,4.800
5.57E-03,4.760
5.58E-03,4.800
5.58E-03,4.840
5.58E-03,4.760
5.59E-03,4.800
5.59E-03,4.800
5.60E-03,4.800
5.60E-03,4.800
5.60E-03,4.840
5.61E-03,4.800
5.61E-03,4.760
5.62E-03,4.800
5.62E-03,4.760
5.62E-03,4.800
5.63E-03,0.000
5.63E-03,0.000
5.64E-03,0.040
5.64E-03,0.000
5.64E-03,0.000
5.65E-03,0.040
5.65E-03,0.040
5.66E-03,0.040
5.66E-03,0.000
5.66E-03,0.000
5.67E-03,0.040
5.67E-03,0.040
5.68E-03,0.040
5.68E-03,0.000
5.68E-03,0.000
5.69E-03,0.040
5.69E-03,0.040
5.70E-03,0.040
5.70E-03,0.040
5.70E-03,0.000
5.71E-03,0.000
5.71E-03,0.040
5.72E-03,0.040
5.72E-03,0.000
5.72E-03,0.040
5.73E-03,0.000
5.73E-03,4.800
5.74E-03,4.760
5.74E-03,4.800
5.74E-03,4.760
5.75E-03,4.800
5.75E-03,4.760
5.76E-03,4.800
5.76E-03,4.800
5.76E-03,4.760
5.77E-03,4.760
5.77E-03,4.760
5.78E-03,4.800
5.78E-03,4.760
5.78E-03,4.800
5.79E-03,4.760
5.79E-03,4.760
5.80E-03,4.800
5.80E-03,4.840
5.80E-03,4.760
5.81E-03,4.800
5.81E-03,4.800
5.82E-03,4.800
5.82E-03,4.800
5.82E-03,4.840
5.83E-03,4.840
5.83E-03,4.840
5.84E-03,0.040
5.84E-03,0.040
5.84E-03,0.000
5.85E-03,0.000
5.85E-03,0.040
5.86E-03,0.040
5.86E-03,0.040
5.86E-03,0.040
5.87E-03,0.080
5.87E-03,0.000
5.88E-03,0.000
5.88E-03,0.040
5.88E-03,0.040
5.89E-03,0.040
5.89E-03,0.040
5.90E-03,0.040
5.90E-03,0.040
5.90E-03,0.000
5.91E-03,0.000
5.91E-03,0.040
5.92E-03,0.080
5.92E-03,0.040
5.92E-03,0.040
5.93E-03,0.040
5.93E-03,0.000
5.94E-03,0.040
5.94E-03,4.840
5.94E-03,4.760
5.95E-03,4.800
5.95E-03,4.760
5.96E-03,4.760
5.96E-03,4.840
5.96E-03,4.800
5.97E-03,4.840
5.97E-03,4.760
5.98E-03,4.760
5.98E-03,4.800
5.98E-03,4.760
5.99E-03,4.800
5.99E-03,4.840
6.00E-03,4.800
6.00E-03,4.720
6.00E-03,4.760
6.01E-03,4.760
6.01E-03,4.800
6.02E-03,4.760
6.02E-03,4.840
6.02E-03,4.800
6.03E-03,4.760
6.03E-03,4.720
6.04E-03,4.800
6.04E-03,0.040
6.04E-03,0.000
6.05E-03,0.040
6.05E-03,0.040
6.06E-03,0.040
6.06E-03,0.000
6.06E-03,0.000
6.07E-03,0.040
6.07E-03,0.040
6.08E-03,0.040
6.08E-03,0.000
6.08E-03,0.040
6.09E-03,0.040
6.09E-03,0.040
6.10E-03,0.040
6.10E-03,0.000
6.10E-03,0.040
6.11E-03,0.000
6.11E-03,0.040
6.12E-03,0.000
6.12E-03,0.040
6.12E-03,0.000
6.13E-03,0.040
6.13E-03,0.040
6.14E-03,0.040
6.14E-03,0.040
6.14E-03,4.800
6.15E-03,4.840
6.15E-03,4.800
6.16E-03,4.800
6.16E-03,4.760
6.16E-03,4.800
6.17E-03,4.840
6.17E-03,4.800
6.18E-03,4.760
6.18E-03,4.800
6.18E-03,4.800
6.19E-03,4.840
6.19E-03,4.800
6.20E-03,4.800
6.20E-03,4.840
6.20E-03,4.800
6.21E-03,4.760
6.21E-03,4.800
6.22E-03,4.800
6.22E-03,4.800
6.22E-03,4.840
6.23E-03,4.800
6.23E-03,4.840
6.24E-03,4.800
6.24E-03,4.840
6.24E-03,4.840
6.25E-03,-0.040
6.25E-03,0.000
6.26E-03,0.040
6.26E-03,0.040
6.26E-03,0.000
6.27E-03,0.040
6.27E-03,0.040
6.28E-03,0.000
6.28E-03,0.040
6.28E-03,0.040
6.29E-03,0.040
6.29E-03,0.040
6.30E-03,0.000
6.30E-03,0.040
6.30E-03,0.040
6.31E-03,0.040
6.31E-03,0.000
6.32E-03,0.040
6.32E-03,0.000
6.32E-03,0.040
6.33E-03,0.040
6.33E-03,0.040
6.34E-03,0.000
6.34E-03,0.000
6.34E-03,0.040
6.35E-03,0.040
6.35E-03,4.840
6.36E-03,4.800
6.36E-03,4.840
6.36E-03,4.840
6.37E-03,4.840
6.37E-03,4.800
6.38E-03,4.840
6.38E-03,4.760
6.38E-03,4.800
6.39E-03,4.800
6.39E-03,4.800
6.40E-03,4.800
6.40E-03,4.760
6.40E-03,4.800
6.41E-03,4.800
6.41E-03,4.800
6.42E-03,4.800
6.42E-03,4.800
6.42E-03,4.800
6.43E-03,4.800
6.43E-03,4.760
6.44E-03,4.800
6.44E-03,4.800
6.44E-03,4.840
6.45E-03,4.800
6.45E-03,4.760
6.46E-03,4.800
6.46E-03,0.040
6.46E-03,0.040
6.47E-03,0.040
6.47E-03,0.000
6.48E-03,0.040
6.48E-03,0.040
6.48E-03,0.080
6.49E-03,0.040
6.49E-03,0.040
6.50E-03,0.000
6.50E-03,0.040
6.50E-03,0.040
6.51E-03,0.000
6.51E-03,0.000
6.52E-03,0.040
6.52E-03,0.040
6.52E-03,0.040
6.53E-03,0.040
6.53E-03,0.080
6.54E-03,0.040
6.54E-03,0.000
6.54E-03,0.040
6.55E-03,0.000
6.55E-03,0.040
6.56E-03,0.000
6.56E-03,0.040
6.56E-03,4.840
6.57E-03,4.800
6.57E-03,4.760
6.58E-03,4.760
6.58E-03,4.800
6.58E-03,4.800
6.59E-03,4.840
6.59E-03,4.800
6.60E-03,4.800
6.60E-03,4.800
6.60E-03,4.840
6.61E-03,4.800
6.61E-03,4.840
6.62E-03,4.760
6.62E-03,4.720
6.62E-03,4.760
6.63E-03,4.760
6.63E-03,4.760
6.64E-03,4.800
6.64E-03,4.760
6.64E-03,4.800
6.65E-03,4.800
6.65E-03,4.760
6.66E-03,4.800
6.66E-03,4.760
6.66E-03,0.000
6.67E-03,0.000
6.67E-03,0.040
6.68E-03,0.080
6.68E-03,0.000
6.68E-03,0.040
6.69E-03,0.040
6.69E-03,0.040
6.70E-03,0.040
6.70E-03,0.040
6.70E-03,0.000
6.71E-03,0.000
6.71E-03,0.040
6.72E-03,0.040
6.72E-03,0.000
6.72E-03,0.080
6.73E-03,0.040
6.73E-03,0.000
6.74E-03,0.040
6.74E-03,0.040
6.74E-03,0.000
6.75E-03,0.040
6.75E-03,0.040
6.76E-03,0.000
6.76E-03,0.040
6.76E-03,0.040
6.77E-03,4.800
6.77E-03,4.800
6.78E-03,4.840
6.78E-03,4.800
6.78E-03,4.720
6.79E-03,4.800
6.79E-03,4.800
6.80E-03,4.800
6.80E-03,4.800
6.80E-03,4.800
6.81E-03,4.800
6.81E-03,4.800
6.82E-03,4.840
6.82E-03,4.800
6.82E-03,4.720
6.83E-03,4.760
6.83E-03,4.840
6.84E-03,4.800
6.84E-03,4.760
6.84E-03,4.760
6.85E-03,4.800
6.85E-03,4.840
6.86E-03,4.840
6.86E-03,4.840
6.86E-03,4.760
6.87E-03,4.760
6.87E-03,-0.040
6.88E-03,0.040
6.88E-03,0.040
6.88E-03,0.040
6.89E-03,0.000
6.89E-03,0.000
6.90E-03,0.040
6.90E-03,0.000
6.90E-03,0.040
6.91E-03,0.000
6.91E-03,0.040
6.92E-03,0.040
6.92E-03,0.040
6.92E-03,0.040
6.93E-03,0.040
6.93E-03,0.040
6.94E-03,0.040
6.94E-03,0.040
6.94E-03,0.000
6.95E-03,0.000
6.95E-03,0.000
6.96E-03,0.000
6.96E-03,0.040
6.96E-03,0.040
6.97E-03,0.040
6.97E-03,0.040
6.98E-03,4.760
6.98E-03,4.800
6.98E-03,4.800
6.99E-03,4.840
6.99E-03,4.800
7.00E-03,4.760
7.00E-03,4.800
7.00E-03,4.800
7.01E-03,4.800
7.01E-03,4.840
7.02E-03,4.800
7.02E-03,4.760
7.02E-03,4.800
7.03E-03,4.760
7.03E-03,4.800
7.04E-03,4.840
7.04E-03,4.800
7.04E-03,4.840
7.05E-03,4.760
7.05E-03,4.760
7.06E-03,4.800
7.06E-03,4.760
7.06E-03,4.800
7.07E-03,4.800
7.07E-03,4.840
7.08E-03,-0.040
7.08E-03,0.040
7.08E-03,0.040
7.09E-03,0.000
7.09E-03,0.000
7.10E-03,0.040
7.10E-03,0.000
7.10E-03,0.040
7.11E-03,0.040
7.11E-03,0.000
7.12E-03,0.040
7.12E-03,0.040
7.12E-03,0.000
7.13E-03,0.000
7.13E-03,0.040
7.14E-03,0.000
7.14E-03,0.000
7.14E-03,0.040
7.15E-03,0.040
7.15E-03,0.000
7.16E-03,0.040
7.16E-03,0.040
7.16E-03,0.000
7.17E-03,0.000
7.17E-03,0.040
7.18E-03,0.000
7.18E-03,4.760
7.18E-03,4.840
7.19E-03,4.760
7.19E-03,4.760
7.20E-03,4.800
7.20E-03,4.760
7.20E-03,4.760
7.21E-03,4.840
7.21E-03,4.800
7.22E-03,4.760
7.22E-03,4.760
7.22E-03,4.800
7.23E-03,4.840
7.23E-03,4.760
7.24E-03,4.760
7.24E-03,4.800
7.24E-03,4.760
7.25E-03,4.800
7.25E-03,4.760
7.26E-03,4.800
7.26E-03,4.800
7.26E-03,4.840
7.27E-03,4.800
7.27E-03,4.760
7.28E-03,4.800
7.28E-03,4.840
7.28E-03,0.040
7.29E-03,0.040
7.29E-03,0.000
7.30E-03,0.040
7.30E-03,0.040
7.30E-03,0.040
7.31E-03,0.040
7.31E-03,0.040
7.32E-03,0.000
7.32E-03,0.040
7.32E-03,0.040
7.33E-03,0.000
7.33E-03,0.000
7.34E-03,0.040
7.34E-03,0.040
7.34E-03,0.040
7.35E-03,0.040
7.35E-03,0.000
7.36E-03,0.080
7.36E-03,0.040
7.36E-03,0.040
7.37E-03,0.040
7.37E-03,0.000
7.38E-03,0.000
7.38E-03,0.040
7.38E-03,0.000
7.39E-03,4.760
7.39E-03,4.800
7.40E-03,4.800
7.40E-03,4.760
7.40E-03,4.760
7.41E-03,4.800
7.41E-03,4.800
7.42E-03,4.760
7.42E-03,4.760
7.42E-03,4.840
7.43E-03,4.800
7.43E-03,4.800
7.44E-03,4.760
7.44E-03,4.800
7.44E-03,4.800
7.45E-03,4.840
7.45E-03,4.800
7.46E-03,4.800
7.46E-03,4.840
7.46E-03,4.800
7.47E-03,4.720
7.47E-03,4.800
7.48E-03,4.760
7.48E-03,4.760
7.48E-03,4.800
7.49E-03,4.720
7.49E-03,4.800
7.50E-03,0.040
7.50E-03,0.040
7.50E-03,0.040
7.51E-03,0.040
7.51E-03,0.000
7.52E-03,0.000
7.52E-03,0.040
7.52E-03,0.000
7.53E-03,0.040
7.53E-03,0.000
7.54E-03,0.080
7.54E-03,0.040
7.54E-03,0.080
7.55E-03,0.040
7.55E-03,0.000
7.56E-03,0.040
7.56E-03,0.000
7.56E-03,0.040
7.57E-03,0.000
7.57E-03,0.040
7.58E-03,0.040
7.58E-03,0.000
7.58E-03,0.040
7.59E-03,0.040
7.59E-03,0.040
7.60E-03,0.040
7.60E-03,4.840
7.60E-03,4.800
7.61E-03,4.800
7.61E-03,4.840
7.62E-03,4.800
7.62E-03,4.760
7.62E-03,4.760
7.63E-03,4.760
7.63E-03,4.800
7.64E-03,4.800
7.64E-03,4.840
7.64E-03,4.800
7.65E-03,4.760
7.65E-03,4.760
7.66E-03,4.800
7.66E-03,4.760
7.66E-03,4.800
7.67E-03,4.760
7.67E-03,4.800
7.68E-03,4.760
7.68E-03,4.800
7.68E-03,4.840
7.69E-03,4.800
7.69E-03,4.760
7.70E-03,4.800
7.70E-03,0.000
7.70E-03,0.040
7.71E-03,0.040
7.71E-03,0.040
7.72E-03,0.000
7.72E-03,0.000
7.72E-03,0.040
7.73E-03,0.040
7.73E-03,0.040
7.74E-03,0.000
7.74E-03,0.040
7.74E-03,0.040
7.75E-03,0.040
7.75E-03,0.040
7.76E-03,-0.040
7.76E-03,0.000
7.76E-03,0.040
7.77E-03,0.040
7.77E-03,0.000
7.78E-03,0.040
7.78E-03,0.000
7.78E-03,0.040
7.79E-03,0.040
7.79E-03,0.000
7.80E-03,0.040
7.80E-03,0.040
7.80E-03,4.760
7.81E-03,4.800
7.81E-03,4.840
7.82E-03,4.840
7.82E-03,4.840
7.82E-03,4.840
7.83E-03,4.840
7.83E-03,4.760
7.84E-03,4.800
7.84E-03,4.840
7.84E-03,4.800
7.85E-03,4.840
7.85E-03,4.840
7.86E-03,4.840
7.86E-03,4.760
7.86E-03,4.760
7.87E-03,4.800
7.87E-03,4.800
7.88E-03,4.840
7.88E-03,4.800
7.88E-03,4.840
7.89E-03,4.760
7.89E-03,4.760
7.90E-03,4.800
7.90E-03,4.840
7.90E-03,4.840
7.91E-03,0.000
7.91E-03,0.040
7.92E-03,0.040
7.92E-03,0.040
7.92E-03,0.000
7.93E-03,0.080
7.93E-03,0.040
7.94E-03,0.040
7.94E-03,0.000
7.94E-03,0.040
7.95E-03,0.040
7.95E-03,0.040
7.96E-03,0.000
7.96E-03,0.000
7.96E-03,0.040
7.97E-03,0.040
7.97E-03,0.040
7.98E-03,0.040
7.98E-03,0.000
7.98E-03,0.000
7.99E-03,0.040
7.99E-03,0.040
8.00E-03,0.040
8.00E-03,0.040
8.00E-03,0.000
8.01E-03,0.040
8.01E-03,4.760
8.02E-03,4.800
8.02E-03,4.760
8.02E-03,4.760
8.03E-03,4.800
8.03E-03,4.760
8.04E-03,4.720
8.04E-03,4.800
8.04E-03,4.760
8.05E-03,4.840
8.05E-03,4.800
8.06E-03,4.800
8.06E-03,4.840
8.06E-03,4.800
8.07E-03,4.840
8.07E-03,4.760
8.08E-03,4.760
8.08E-03,4.760
8.08E-03,4.720
8.09E-03,4.760
8.09E-03,4.840
8.10E-03,4.800
8.10E-03,4.800
8.10E-03,4.800
8.11E-03,4.840
8.11E-03,0.000
8.12E-03,0.040
8.12E-03,0.040
8.12E-03,0.000
8.13E-03,0.040
8.13E-03,0.040
8.14E-03,0.000
8.14E-03,0.040
8.14E-03,0.000
8.15E-03,0.040
8.15E-03,0.040
8.16E-03,0.040
8.16E-03,0.040
8.16E-03,0.000
8.17E-03,0.040
8.17E-03,0.040
8.18E-03,0.040
8.18E-03,0.000
8.18E-03,0.000
8.19E-03,0.040
8.19E-03,0.040
8.20E-03,0.000
8.20E-03,0.000
8.20E-03,0.040
8.21E-03,0.040
8.21E-03,0.040
8.22E-03,4.840
8.22E-03,4.760
8.22E-03,4.720
8.23E-03,4.760
8.23E-03,4.840
8.24E-03,4.760
8.24E-03,4.800
8.24E-03,4.760
8.25E-03,4.800
8.25E-03,4.800
8.26E-03,4.840
8.26E-03,4.800
8.26E-03,4.800
8.27E-03,4.840
8.27E-03,4.800
8.28E-03,4.760
8.28E-03,4.840
8.28E-03,4.800
8.29E-03,4.760
8.29E-03,4.800
8.30E-03,4.760
8.30E-03,4.800
8.30E-03,4.760
8.31E-03,4.760
8.31E-03,4.800
8.32E-03,4.760
8.32E-03,0.040
8.32E-03,0.040
8.33E-03,0.040
8.33E-03,0.000
8.34E-03,0.000
8.34E-03,0.040
8.34E-03,0.040
8.35E-03,0.000
8.35E-03,0.040
8.36E-03,0.040
8.36E-03,0.000
8.36E-03,0.040
8.37E-03,0.040
8.37E-03,0.000
8.38E-03,-0.040
8.38E-03,0.040
8.38E-03,0.040
8.39E-03,0.040
8.39E-03,0.040
8.40E-03,0.040
8.40E-03,0.040
8.40E-03,0.000
8.41E-03,0.000
8.41E-03,0.040
8.42E-03,0.000
8.42E-03,0.000
8.42E-03,0.040
8.43E-03,4.880
8.43E-03,4.760
8.44E-03,4.800
8.44E-03,4.840
8.44E-03,4.760
8.45E-03,4.800
8.45E-03,4.840
8.46E-03,4.800
8.46E-03,4.760
8.46E-03,4.800
8.47E-03,4.800
8.47E-03,4.800
8.48E-03,4.840
8.48E-03,4.800
8.48E-03,4.840
8.49E-03,4.760
8.49E-03,4.760
8.50E-03,4.800
8.50E-03,4.760
8.50E-03,4.800
8.51E-03,4.800
8.51E-03,4.840
8.52E-03,4.800
8.52E-03,4.760
8.52E-03,4.760
8.53E-03,4.800
8.53E-03,0.000
8.54E-03,0.000
8.54E-03,0.000
8.54E-03,0.040
8.55E-03,0.040
8.55E-03,0.000
8.56E-03,0.040
8.56E-03,0.040
8.56E-03,0.000
8.57E-03,0.000
8.57E-03,0.040
8.58E-03,0.040
8.58E-03,0.040
8.58E-03,0.000
8.59E-03,0.040
8.59E-03,0.040
8.60E-03,0.000
8.60E-03,0.040
8.60E-03,0.000
8.61E-03,0.000
8.61E-03,0.040
8.62E-03,0.000
8.62E-03,0.000
8.62E-03,0.000
8.63E-03,0.000
8.63E-03,0.040
8.64E-03,4.800
8.64E-03,4.800
8.64E-03,4.760
8.65E-03,4.720
8.65E-03,4.800
8.66E-03,4.800
8.66E-03,4.800
8.66E-03,4.800
8.67E-03,4.840
8.67E-03,4.800
8.68E-03,4.760
8.68E-03,4.800
8.68E-03,4.760
8.69E-03,4.760
8.69E-03,4.800
8.70E-03,4.840
8.70E-03,4.840
8.70E-03,4.760
8.71E-03,4.800
8.71E-03,4.800
8.72E-03,4.800
8.72E-03,4.800
8.72E-03,4.800
8.73E-03,4.840
8.73E-03,4.800
8.74E-03,0.000
8.74E-03,0.000
8.74E-03,0.000
8.75E-03,0.040
8.75E-03,0.000
8.76E-03,0.000
8.76E-03,0.040
8.76E-03,0.000
8.77E-03,0.040
8.77E-03,0.040
8.78E-03,0.000
8.78E-03,0.040
8.78E-03,0.000
8.79E-03,0.040
8.79E-03,0.040
8.80E-03,0.040
8.80E-03,0.040
8.80E-03,0.000
8.81E-03,0.000
8.81E-03,0.040
8.82E-03,0.000
8.82E-03,0.040
8.82E-03,0.000
8.83E-03,0.080
8.83E-03,0.040
8.84E-03,0.000
8.84E-03,4.800
8.84E-03,4.840
8.85E-03,4.800
8.85E-03,4.720
8.86E-03,4.800
8.86E-03,4.840
8.86E-03,4.760
8.87E-03,4.760
8.87E-03,4.760
8.88E-03,4.760
8.88E-03,4.720
8.88E-03,4.800
8.89E-03,4.760
8.89E-03,4.800
8.90E-03,4.760
8.90E-03,4.800
8.90E-03,4.800
8.91E-03,4.840
8.91E-03,4.760
8.92E-03,4.720
8.92E-03,4.760
8.92E-03,4.800
8.93E-03,4.760
8.93E-03,4.760
8.94E-03,4.840
8.94E-03,4.840
8.94E-03,0.040
8.95E-03,0.040
8.95E-03,0.040
8.96E-03,0.040
8.96E-03,0.000
8.96E-03,0.000
8.97E-03,0.040
8.97E-03,0.040
8.98E-03,0.040
8.98E-03,0.040
8.98E-03,0.040
8.99E-03,0.000
8.99E-03,0.000
9.00E-03,0.080
9.00E-03,0.000
9.00E-03,0.040
9.01E-03,0.040
9.01E-03,0.040
9.02E-03,0.000
9.02E-03,0.040
9.02E-03,0.040
9.03E-03,0.040
9.03E-03,0.040
9.04E-03,0.040
9.04E-03,0.040
9.04E-03,0.080
9.05E-03,4.800
9.05E-03,4.840
9.06E-03,4.800
9.06E-03,4.840
9.06E-03,4.840
9.07E-03,4.760
9.07E-03,4.720
9.08E-03,4.760
9.08E-03,4.800
9.08E-03,4.800
9.09E-03,4.840
9.09E-03,4.800
9.10E-03,4.840
9.10E-03,4.760
9.10E-03,4.760
9.11E-03,4.800
9.11E-03,4.760
9.12E-03,4.800
9.12E-03,4.800
9.12E-03,4.800
9.13E-03,4.800
9.13E-03,4.840
9.14E-03,4.800
9.14E-03,4.800
9.14E-03,4.800
9.15E-03,0.040
9.15E-03,0.000
9.16E-03,0.040
9.16E-03,0.040
9.16E-03,0.000
9.17E-03,0.040
9.17E-03,0.040
9.18E-03,0.040
9.18E-03,0.040
9.18E-03,0.040
9.19E-03,0.000
9.19E-03,0.040
9.20E-03,0.040
9.20E-03,0.000
9.20E-03,0.000
9.21E-03,0.040
9.21E-03,0.040
9.22E-03,-0.040
9.22E-03,0.040
9.22E-03,0.000
9.23E-03,0.040
9.23E-03,0.040
9.24E-03,0.000
9.24E-03,0.040
9.24E-03,0.040
9.25E-03,0.040
9.25E-03,4.760
9.26E-03,4.800
9.26E-03,4.800
9.26E-03,4.800
9.27E-03,4.840
9.27E-03,4.800
9.28E-03,4.760
9.28E-03,4.800
9.28E-03,4.840
9.29E-03,4.800
9.29E-03,4.760
9.30E-03,4.800
9.30E-03,4.840
9.30E-03,4.840
9.31E-03,4.760
9.31E-03,4.760
9.32E-03,4.800
9.32E-03,4.760
9.32E-03,4.760
9.33E-03,4.760
9.33E-03,4.840
9.34E-03,4.840
9.34E-03,4.760
9.34E-03,4.800
9.35E-03,4.800
9.35E-03,4.800
9.36E-03,0.040
9.36E-03,0.000
9.36E-03,0.000
9.37E-03,0.040
9.37E-03,0.040
9.38E-03,0.000
9.38E-03,0.000
9.38E-03,0.040
9.39E-03,0.000
9.39E-03,0.000
9.40E-03,0.040
9.40E-03,0.000
9.40E-03,0.040
9.41E-03,0.040
9.41E-03,0.040
9.42E-03,0.000
9.42E-03,0.040
9.42E-03,0.040
9.43E-03,0.040
9.43E-03,0.040
9.44E-03,0.040
9.44E-03,0.000
9.44E-03,0.000
9.45E-03,0.040
9.45E-03,0.000
9.46E-03,0.000
9.46E-03,0.040
9.46E-03,4.840
9.47E-03,4.760
9.47E-03,4.760
9.48E-03,4.800
9.48E-03,4.800
9.48E-03,4.840
9.49E-03,4.800
9.49E-03,4.760
9.50E-03,4.760
9.50E-03,4.840
9.50E-03,4.760
9.51E-03,4.840
9.51E-03,4.760
9.52E-03,4.800
9.52E-03,4.800
9.52E-03,4.760
9.53E-03,4.760
9.53E-03,4.760
9.54E-03,4.800
9.54E-03,4.840
9.54E-03,4.840
9.55E-03,4.760
9.55E-03,4.760
9.56E-03,4.800
9.56E-03,4.760
9.56E-03,4.840
9.57E-03,0.000
9.57E-03,0.040
9.58E-03,0.000
9.58E-03,0.000
9.58E-03,0.040
9.59E-03,0.000
9.59E-03,0.040
9.60E-03,0.040
9.60E-03,0.040
9.60E-03,0.040
9.61E-03,0.000
9.61E-03,0.000
9.62E-03,0.040
9.62E-03,0.040
9.62E-03,0.040
9.63E-03,0.000
9.63E-03,0.000
9.64E-03,0.040
9.64E-03,0.040
9.64E-03,0.040
9.65E-03,0.000
9.65E-03,0.000
9.66E-03,0.040
9.66E-03,0.040
9.66E-03,0.000
9.67E-03,0.080
9.67E-03,4.800
9.68E-03,4.800
9.68E-03,4.760
9.68E-03,4.760
9.69E-03,4.800
9.69E-03,4.840
9.70E-03,4.760
9.70E-03,4.800
9.70E-03,4.800
9.71E-03,4.760
9.71E-03,4.800
9.72E-03,4.840
9.72E-03,4.760
9.72E-03,4.720
9.73E-03,4.800
9.73E-03,4.760
9.74E-03,4.800
9.74E-03,4.840
9.74E-03,4.840
9.75E-03,4.720
9.75E-03,4.800
9.76E-03,4.800
9.76E-03,4.800
9.76E-03,4.800
9.77E-03,4.800
9.77E-03,0.040
9.78E-03,0.040
9.78E-03,0.040
9.78E-03,0.040
9.79E-03,0.040
9.79E-03,0.080
9.80E-03,0.000
9.80E-03,0.000
9.80E-03,0.040
9.81E-03,0.000
9.81E-03,0.040
9.82E-03,0.040
9.82E-03,0.040
9.82E-03,0.040
9.83E-03,0.040
9.83E-03,0.040
9.84E-03,0.040
9.84E-03,0.000
9.84E-03,0.000
9.85E-03,0.040
9.85E-03,0.040
9.86E-03,0.040
9.86E-03,0.040
9.86E-03,0.000
9.87E-03,0.000
9.87E-03,0.040
9.88E-03,4.840
9.88E-03,4.800
9.88E-03,4.840
9.89E-03,4.760
9.89E-03,4.800
9.90E-03,4.800
9.90E-03,4.840
9.90E-03,4.800
9.91E-03,4.760
9.91E-03,4.760
9.92E-03,4.840
9.92E-03,4.800
9.92E-03,4.760
9.93E-03,4.800
9.93E-03,4.760
9.94E-03,4.800
9.94E-03,4.800
9.94E-03,4.800
9.95E-03,4.800
9.95E-03,4.840
9.96E-03,4.800
9.96E-03,4.800
9.96E-03,4.840
9.97E-03,4.800
9.97E-03,4.760
9.98E-03,4.760
9.98E-03,0.000
9.98E-03,0.040
9.99E-03,0.040
9.99E-03,0.040
1.00E-02,0.000
1.00E-02,0.040
1.00E-02,0.040
1.00E-02,0.000
1.00E-02,0.040
1.00E-02,0.000
1.00E-02,0.040
1.00E-02,0.000
1.00E-02,0.040
1.00E-02,0.000
1.00E-02,0.040
1.00E-02,0.000
1.00E-02,0.040
1.00E-02,0.000
1.01E-02,0.040
1.01E-02,0.000
1.01E-02,0.000
1.01E-02,0.040
1.01E-02,0.040
1.01E-02,0.040
1.01E-02,0.040
1.01E-02,0.040
1.01E-02,4.840
1.01E-02,4.800
1.01E-02,4.760
1.01E-02,4.840
1.01E-02,4.800
1.01E-02,4.760
1.01E-02,4.800
1.01E-02,4.840
1.01E-02,4.800
1.01E-02,4.760
1.01E-02,4.800
1.01E-02,4.800
1.01E-02,4.800
1.01E-02,4.800
1.01E-02,4.840
1.01E-02,4.800
1.01E-02,4.840
1.02E-02,4.760
1.02E-02,4.800
1.02E-02,4.840
1.02E-02,4.800
1.02E-02,4.840
1.02E-02,4.840
1.02E-02,4.760
1.02E-02,4.800
1.02E-02,0.000
1.02E-02,0.000
1.02E-02,0.000
1.02E-02,0.040
1.02E-02,0.040
1.02E-02,0.000
1.02E-02,0.000
1.02E-02,0.040
1.02E-02,0.000
1.02E-02,0.040
1.02E-02,0.040
1.02E-02,0.000
1.02E-02,0.040
1.02E-02,0.000
1.02E-02,0.000
1.02E-02,0.040
1.02E-02,0.040
1.03E-02,0.040
1.03E-02,0.040
1.03E-02,0.040
1.03E-02,0.000
1.03E-02,0.000
1.03E-02,0.040
1.03E-02,0.000
1.03E-02,0.040
1.03E-02,0.000
1.03E-02,4.840
1.03E-02,4.800
1.03E-02,4.840
1.03E-02,4.800
1.03E-02,4.840
1.03E-02,4.800
1.03E-02,4.840
1.03E-02,4.840
1.03E-02,4.840
1.03E-02,4.760
1.03E-02,4.760
1.03E-02,4.760
1.03E-02,4.800
1.03E-02,4.800
1.03E-02,4.800
1.03E-02,4.760
1.04E-02,4.800
1.04E-02,4.800
1.04E-02,4.800
1.04E-02,4.760
1.04E-02,4.840
1.04E-02,4.800
1.04E-02,4.800
1.04E-02,4.800
1.04E-02,4.840
1.04E-02,4.760
1.04E-02,0.040
1.04E-02,0.000
1.04E-02,0.040
1.04E-02,0.040
1.04E-02,0.000
1.04E-02,0.040
1.04E-02,0.000
1.04E-02,0.040
1.04E-02,0.040
1.04E-02,0.040
1.04E-02,0.040
1.04E-02,0.040
1.04E-02,0.040
1.04E-02,0.040
1.04E-02,0.000
1.05E-02,0.000
1.05E-02,0.040
1.05E-02,0.040
1.05E-02,0.080
1.05E-02,0.000
1.05E-02,0.000
1.05E-02,0.040
1.05E-02,0.000
1.05E-02,0.000
1.05E-02,0.040
1.05E-02,0.040
1.05E-02,0.080
1.05E-02,4.800
1.05E-02,4.760
1.05E-02,4.840
1.05E-02,4.800
1.05E-02,4.720
1.05E-02,4.800
1.05E-02,4.720
1.05E-02,4.720
1.05E-02,4.800
1.05E-02,4.840
1.05E-02,4.720
1.05E-02,4.760
1.05E-02,4.760
1.06E-02,4.800
1.06E-02,4.840
1.06E-02,4.800
1.06E-02,4.760
1.06E-02,4.840
1.06E-02,4.800
1.06E-02,4.800
1.06E-02,4.840
1.06E-02,4.800
1.06E-02,4.840
1.06E-02,4.760
1.06E-02,4.800
1.06E-02,4.840
1.06E-02,0.000
1.06E-02,0.040
1.06E-02,0.040
1.06E-02,0.040
1.06E-02,0.040
1.06E-02,0.080
1.06E-02,0.000
1.06E-02,0.000
1.06E-02,0.040
1.06E-02,0.040
1.06E-02,0.000
1.06E-02,0.000
1.07E-02,0.000
1.07E-02,0.040
1.07E-02,-0.040
1.07E-02,0.040
1.07E-02,0.000
1.07E-02,0.000
1.07E-02,0.000
1.07E-02,0.040
1.07E-02,0.000
1.07E-02,0.040
1.07E-02,0.000
1.07E-02,0.000
1.07E-02,0.000
1.07E-02,0.000
1.07E-02,4.840
1.07E-02,4.760
1.07E-02,4.800
1.07E-02,4.840
1.07E-02,4.800
1.07E-02,4.760
1.07E-02,4.800
1.07E-02,4.800
1.07E-02,4.840
1.07E-02,4.800
1.07E-02,4.760
1.08E-02,4.800
1.08E-02,4.800
1.08E-02,4.800
1.08E-02,4.840
1.08E-02,4.800
1.08E-02,4.840
1.08E-02,4.840
1.08E-02,4.840
1.08E-02,4.840
1.08E-02,4.760
1.08E-02,4.760
1.08E-02,4.800
1.08E-02,4.840
1.08E-02,4.760
1.08E-02,4.760
1.08E-02,0.000
1.08E-02,0.040
1.08E-02,0.000
1.08E-02,0.000
1.08E-02,0.040
1.08E-02,0.040
1.08E-02,0.000
1.08E-02,0.040
1.08E-02,0.000
1.08E-02,0.040
1.09E-02,0.040
1.09E-02,0.040
1.09E-02,0.040
1.09E-02,0.000
1.09E-02,0.000
1.09E-02,0.040
1.09E-02,0.040
1.09E-02,0.000
1.09E-02,0.040
1.09E-02,0.040
1.09E-02,0.040
1.09E-02,0.040
1.09E-02,0.040
1.09E-02,0.000
1.09E-02,0.000
1.09E-02,4.760
1.09E-02,4.800
1.09E-02,4.840
1.09E-02,4.760
1.09E-02,4.760
1.09E-02,4.800
1.09E-02,4.800
1.09E-02,4.800
1.09E-02,4.800
1.09E-02,4.760
1.10E-02,4.800
1.10E-02,4.840
1.10E-02,4.760
1.10E-02,4.800
1.10E-02,4.840
1.10E-02,4.800
1.10E-02,4.840
1.10E-02,4.840
1.10E-02,4.840
1.10E-02,4.760
1.10E-02,4.800
1.10E-02,4.800
1.10E-02,4.800
1.10E-02,4.800
1.10E-02,4.840
1.10E-02,4.720
1.10E-02,0.040
1.10E-02,0.000
1.10E-02,0.040
1.10E-02,0.040
1.10E-02,0.080
1.10E-02,0.040
1.10E-02,0.040
1.10E-02,0.040
1.10E-02,0.040
1.11E-02,0.000
1.11E-02,0.040
1.11E-02,0.040
1.11E-02,0.000
1.11E-02,0.000
1.11E-02,0.040
1.11E-02,0.040
1.11E-02,0.000
1.11E-02,0.040
1.11E-02,0.000
1.11E-02,0.000
1.11E-02,0.040
1.11E-02,0.000
1.11E-02,0.040
1.11E-02,0.000
1.11E-02,0.040
1.11E-02,0.040
1.11E-02,4.840
1.11E-02,4.760
1.11E-02,4.720
1.11E-02,4.720
1.11E-02,4.800
1.11E-02,4.720
1.11E-02,4.760
1.11E-02,4.760
1.12E-02,4.760
1.12E-02,4.800
1.12E-02,4.800
1.12E-02,4.720
1.12E-02,4.800
1.12E-02,4.760
1.12E-02,4.800
1.12E-02,4.800
1.12E-02,4.840
1.12E-02,4.840
1.12E-02,4.800
1.12E-02,4.840
1.12E-02,4.760
1.12E-02,4.760
1.12E-02,4.800
1.12E-02,4.800
1.12E-02,4.760
1.12E-02,4.720
1.12E-02,0.000
1.12E-02,0.040
1.12E-02,0.000
1.12E-02,0.000
1.12E-02,0.080
1.12E-02,0.000
1.12E-02,0.040
1.13E-02,0.040
1.13E-02,0.000
1.13E-02,0.040
1.13E-02,0.080
1.13E-02,0.040
1.13E-02,0.040
1.13E-02,0.000
1.13E-02,0.000
1.13E-02,0.040
1.13E-02,0.040
1.13E-02,0.040
1.13E-02,0.000
1.13E-02,0.000
1.13E-02,0.040
1.13E-02,0.040
1.13E-02,0.040
1.13E-02,-0.040
1.13E-02,0.000
1.13E-02,4.840
1.13E-02,4.760
1.13E-02,4.760
1.13E-02,4.800
1.13E-02,4.760
1.13E-02,4.800
1.13E-02,4.840
1.14E-02,4.800
1.14E-02,4.760
1.14E-02,4.800
1.14E-02,4.840
1.14E-02,4.800
1.14E-02,4.800
1.14E-02,4.840
1.14E-02,4.800
1.14E-02,4.800
1.14E-02,4.800
1.14E-02,4.840
1.14E-02,4.800
1.14E-02,4.760
1.14E-02,4.800
1.14E-02,4.800
1.14E-02,4.840
1.14E-02,4.800
1.14E-02,4.800
1.14E-02,4.800
1.14E-02,0.000
1.14E-02,0.000
1.14E-02,0.000
1.14E-02,0.040
1.14E-02,0.040
1.14E-02,0.040
1.15E-02,0.000
1.15E-02,0.040
1.15E-02,0.040
1.15E-02,0.040
1.15E-02,0.000
1.15E-02,0.000
1.15E-02,0.040
1.15E-02,0.000
1.15E-02,0.000
1.15E-02,0.040
1.15E-02,0.000
1.15E-02,-0.040
1.15E-02,0.040
1.15E-02,0.040
1.15E-02,0.040
1.15E-02,0.040
1.15E-02,0.000
1.15E-02,0.040
1.15E-02,0.040
1.15E-02,0.040
1.15E-02,0.040
1.15E-02,4.840
1.15E-02,4.840
1.15E-02,4.800
1.15E-02,4.840
1.16E-02,4.760
1.16E-02,4.800
1.16E-02,4.840
1.16E-02,4.800
1.16E-02,4.760
1.16E-02,4.800
1.16E-02,4.840
1.16E-02,4.840
1.16E-02,4.800
1.16E-02,4.840
1.16E-02,4.760
1.16E-02,4.800
1.16E-02,4.800
1.16E-02,4.840
1.16E-02,4.800
1.16E-02,4.840
1.16E-02,4.760
1.16E-02,4.800
1.16E-02,4.800
1.16E-02,4.840
1.16E-02,4.800
1.16E-02,4.760
1.16E-02,0.000
1.16E-02,0.040
1.16E-02,0.040
1.17E-02,0.040
1.17E-02,0.040
1.17E-02,0.040
1.17E-02,0.040
1.17E-02,0.040
1.17E-02,0.040
1.17E-02,0.000
1.17E-02,0.000
1.17E-02,0.040
1.17E-02,0.000
1.17E-02,0.000
1.17E-02,0.040
1.17E-02,0.040
1.17E-02,0.040
1.17E-02,0.040
1.17E-02,0.040
1.17E-02,0.040
1.17E-02,0.000
1.17E-02,0.000
1.17E-02,0.040
1.17E-02,0.000
1.17E-02,0.040
1.17E-02,0.000
1.17E-02,4.840
1.17E-02,4.840
1.18E-02,4.800
1.18E-02,4.840
1.18E-02,4.720
1.18E-02,4.800
1.18E-02,4.840
1.18E-02,4.800
1.18E-02,4.720
1.18E-02,4.800
1.18E-02,4.720
1.18E-02,4.800
1.18E-02,4.800
1.18E-02,4.800
1.18E-02,4.800
1.18E-02,4.760
1.18E-02,4.760
1.18E-02,4.840
1.18E-02,4.840
1.18E-02,4.800
1.18E-02,4.800
1.18E-02,4.760
1.18E-02,4.760
1.18E-02,4.840
1.18E-02,4.800
1.18E-02,4.800
1.18E-02,0.040
1.19E-02,0.000
1.19E-02,0.040
1.19E-02,0.040
1.19E-02,0.000
1.19E-02,0.000
1.19E-02,0.040
1.19E-02,0.000
1.19E-02,0.040
1.19E-02,0.040
1.19E-02,0.040
1.19E-02,0.000
1.19E-02,0.000
1.19E-02,0.040
1.19E-02,0.040
1.19E-02,0.000
1.19E-02,0.000
1.19E-02,0.040
1.19E-02,0.040
1.19E-02,0.080
1.19E-02,0.000
1.19E-02,0.040
1.19E-02,0.040
1.19E-02,0.000
1.19E-02,0.040
1.19E-02,4.800
1.20E-02,4.760
1.20E-02,4.800
1.20E-02,4.800
1.20E-02,4.760
1.20E-02,4.800
1.20E-02,4.800
1.20E-02,4.720
1.20E-02,4.800
1.20E-02,4.720
1.20E-02,4.760
1.20E-02,4.760
1.20E-02,4.760
1.20E-02,4.800
1.20E-02,4.800
1.20E-02,4.800
1.20E-02,4.840
1.20E-02,4.760
1.20E-02,4.800
1.20E-02,4.800
1.20E-02,4.800
1.20E-02,4.760
1.20E-02,4.800
1.20E-02,4.840
1.20E-02,4.720
1.20E-02,4.760
1.21E-02,0.000
1.21E-02,0.040
1.21E-02,0.040
1.21E-02,0.040
1.21E-02,0.040
1.21E-02,0.040
1.21E-02,0.040
1.21E-02,0.000
1.21E-02,0.040
1.21E-02,0.000
1.21E-02,0.000
1.21E-02,0.040
1.21E-02,0.040
1.21E-02,0.040
1.21E-02,0.040
1.21E-02,0.000
1.21E-02,0.000
1.21E-02,0.040
1.21E-02,0.000
1.21E-02,0.000
1.21E-02,0.000
1.21E-02,0.040
1.21E-02,0.000
1.21E-02,0.040
1.21E-02,0.000
1.22E-02,0.000
1.22E-02,4.760
1.22E-02,4.800
1.22E-02,4.800
1.22E-02,4.840
1.22E-02,4.800
1.22E-02,4.800
1.22E-02,4.800
1.22E-02,4.800
1.22E-02,4.840
1.22E-02,4.800
1.22E-02,4.840
1.22E-02,4.760
1.22E-02,4.800
1.22E-02,4.880
1.22E-02,4.800
1.22E-02,4.760
1.22E-02,4.840
1.22E-02,4.840
1.22E-02,4.760
1.22E-02,4.800
1.22E-02,4.840
1.22E-02,4.800
1.22E-02,4.840
1.22E-02,4.800
1.23E-02,4.840
1.23E-02,4.800
1.23E-02,0.040
1.23E-02,0.040
1.23E-02,0.040
1.23E-02,0.000
1.23E-02,0.000
1.23E-02,0.040
1.23E-02,0.000
1.23E-02,0.040
1.23E-02,0.040
1.23E-02,0.000
1.23E-02,0.040
1.23E-02,0.040
1.23E-02,0.040
1.23E-02,0.040
1.23E-02,0.000
1.23E-02,0.000
1.23E-02,0.040
1.23E-02,0.040
1.23E-02,0.040
1.23E-02,0.000
1.23E-02,0.040
1.23E-02,0.040
1.23E-02,0.000
1.24E-02,0.000
1.24E-02,0.040
1.24E-02,4.760
1.24E-02,4.840
1.24E-02,4.800
1.24E-02,4.800
1.24E-02,4.840
1.24E-02,4.800
1.24E-02,4.800
1.24E-02,4.800
1.24E-02,4.800
1.24E-02,4.800
1.24E-02,4.800
1.24E-02,4.800
1.24E-02,4.840
1.24E-02,4.800
1.24E-02,4.760
1.24E-02,4.840
1.24E-02,4.800
1.24E-02,4.800
1.24E-02,4.840
1.24E-02,4.800
1.24E-02,4.840
1.24E-02,4.840
1.24E-02,4.840
1.25E-02,4.840
1.25E-02,4.840
1.25E-02,4.840
1.25E-02,0.040
1.25E-02,0.040
1.25E-02,0.080
1.25E-02,0.040
1.25E-02,0.000
1.25E-02,0.000
1.25E-02,0.040
1.25E-02,0.040
1.25E-02,0.040
1.25E-02,0.040
1.25E-02,0.040
1.25E-02,0.000
1.25E-02,0.000
1.25E-02,0.040
1.25E-02,0.040
1.25E-02,0.000
1.25E-02,0.040
1.25E-02,0.000
1.25E-02,0.040
1.25E-02,0.000
1.25E-02,0.040
1.25E-02,0.000
1.26E-02,0.040
1.26E-02,0.040
1.26E-02,0.000
1.26E-02,0.000
1.26E-02,0.040
1.26E-02,4.840
1.26E-02,4.720
1.26E-02,4.800
1.26E-02,4.800
1.26E-02,4.800
1.26E-02,4.760
1.26E-02,4.840
1.26E-02,4.760
1.26E-02,4.760
1.26E-02,4.760
1.26E-02,4.800
1.26E-02,4.840
1.26E-02,4.800
1.26E-02,4.760
1.26E-02,4.800
1.26E-02,4.720
1.26E-02,4.800
1.26E-02,4.800
1.26E-02,4.760
1.26E-02,4.800
1.27E-02,4.840
1.27E-02,4.800
1.27E-02,4.840
1.27E-02,4.760
1.27E-02,4.760
1.27E-02,4.760
1.27E-02,0.040
1.27E-02,0.040
1.27E-02,0.040
1.27E-02,0.080
1.27E-02,0.000
1.27E-02,0.040
1.27E-02,0.000
1.27E-02,0.080
1.27E-02,0.040
1.27E-02,0.040
1.27E-02,0.040
1.27E-02,0.040
1.27E-02,0.040
1.27E-02,0.000
1.27E-02,0.000
1.27E-02,0.080
1.27E-02,0.040
1.27E-02,0.080
1.27E-02,0.040
1.28E-02,0.040
1.28E-02,0.040
1.28E-02,0.000
1.28E-02,0.000
1.28E-02,0.040
1.28E-02,0.040
1.28E-02,0.040
1.28E-02,4.800
1.28E-02,4.800
1.28E-02,4.840
1.28E-02,4.760
1.28E-02,4.840
1.28E-02,4.720
1.28E-02,4.760
1.28E-02,4.760
1.28E-02,4.760
1.28E-02,4.800
1.28E-02,4.800
1.28E-02,4.800
1.28E-02,4.840
1.28E-02,4.760
1.28E-02,4.760
1.28E-02,4.800
1.28E-02,4.760
1.28E-02,4.840
1.29E-02,4.800
1.29E-02,4.760
1.29E-02,4.760
1.29E-02,4.800
1.29E-02,4.800
1.29E-02,4.760
1.29E-02,4.800
1.29E-02,4.800
1.29E-02,0.000
1.29E-02,0.000
1.29E-02,0.040
1.29E-02,0.040
1.29E-02,0.040
1.29E-02,0.040
1.29E-02,-0.040
1.29E-02,0.040
1.29E-02,0.000
1.29E-02,0.040
1.29E-02,0.040
1.29E-02,0.040
1.29E-02,0.040
1.29E-02,0.040
1.29E-02,-0.040
1.29E-02,0.000
1.29E-02,0.040
1.30E-02,0.040
1.30E-02,0.000
1.30E-02,0.000
1.30E-02,0.040
1.30E-02,0.040
1.30E-02,0.040
1.30E-02,0.040
1.30E-02,0.040
1.30E-02,4.840
1.30E-02,4.760
1.30E-02,4.760
1.30E-02,4.800
1.30E-02,4.840
1.30E-02,4.760
1.30E-02,4.800
1.30E-02,4.840
1.30E-02,4.800
1.30E-02,4.760
1.30E-02,4.800
1.30E-02,4.800
1.30E-02,4.840
1.30E-02,4.800
1.30E-02,4.760
1.30E-02,4.800
1.30E-02,4.840
1.31E-02,4.760
1.31E-02,4.760
1.31E-02,4.800
1.31E-02,4.800
1.31E-02,4.800
1.31E-02,4.840
1.31E-02,4.800
1.31E-02,4.760
1.31E-02,4.800
1.31E-02,0.040
1.31E-02,0.040
1.31E-02,0.000
1.31E-02,0.000
1.31E-02,0.080
1.31E-02,0.040
1.31E-02,0.080
1.31E-02,0.000
1.31E-02,0.040
1.31E-02,0.040
1.31E-02,0.040
1.31E-02,0.000
1.31E-02,0.040
1.31E-02,0.040
1.31E-02,0.000
1.31E-02,0.040
1.32E-02,0.000
1.32E-02,0.040
1.32E-02,0.000
1.32E-02,0.040
1.32E-02,0.000
1.32E-02,0.000
1.32E-02,0.040
1.32E-02,0.040
1.32E-02,0.040
1.32E-02,0.000
1.32E-02,4.800
1.32E-02,4.760
1.32E-02,4.800
1.32E-02,4.800
1.32E-02,4.840
1.32E-02,4.760
1.32E-02,4.840
1.32E-02,4.760
1.32E-02,4.760
1.32E-02,4.840
1.32E-02,4.800
1.32E-02,4.800
1.32E-02,4.840
1.32E-02,4.800
1.32E-02,4.760
1.33E-02,4.760
1.33E-02,4.800
1.33E-02,4.800
1.33E-02,4.760
1.33E-02,4.800
1.33E-02,4.840
1.33E-02,4.800
1.33E-02,4.760
1.33E-02,4.760
1.33E-02,4.800
1.33E-02,4.800
1.33E-02,0.000
1.33E-02,0.040
1.33E-02,0.080
1.33E-02,0.040
1.33E-02,0.000
1.33E-02,0.000
1.33E-02,0.040
1.33E-02,0.040
1.33E-02,0.040
1.33E-02,0.040
1.33E-02,0.000
1.33E-02,0.040
1.33E-02,0.040
1.33E-02,0.040
1.34E-02,0.040
1.34E-02,0.000
1.34E-02,0.000
1.34E-02,0.040
1.34E-02,0.000
1.34E-02,0.040
1.34E-02,0.040
1.34E-02,0.040
1.34E-02,0.040
1.34E-02,0.040
1.34E-02,0.040
1.34E-02,4.840
1.34E-02,4.800
1.34E-02,4.760
1.34E-02,4.760
1.34E-02,4.800
1.34E-02,4.840
1.34E-02,4.800
1.34E-02,4.840
1.34E-02,4.800
1.34E-02,4.800
1.34E-02,4.720
1.34E-02,4.760
1.34E-02,4.800
1.34E-02,4.840
1.35E-02,4.720
1.35E-02,4.760
1.35E-02,4.800
1.35E-02,4.800
1.35E-02,4.760
1.35E-02,4.840
1.35E-02,4.800
1.35E-02,4.840
1.35E-02,4.720
1.35E-02,4.720
1.35E-02,4.800
1.35E-02,4.840
1.35E-02,0.040
1.35E-02,0.040
1.35E-02,0.040
1.35E-02,0.080
1.35E-02,0.000
1.35E-02,0.000
1.35E-02,0.040
1.35E-02,0.040
1.35E-02,0.000
1.35E-02,0.000
1.35E-02,0.080
1.35E-02,0.080
1.35E-02,0.040
1.36E-02,0.000
1.36E-02,0.000
1.36E-02,0.040
1.36E-02,0.000
1.36E-02,0.000
1.36E-02,0.040
1.36E-02,0.040
1.36E-02,0.040
1.36E-02,0.040
1.36E-02,0.040
1.36E-02,0.040
1.36E-02,0.000
1.36E-02,0.000
1.36E-02,0.040
1.36E-02,4.800
1.36E-02,4.840
1.36E-02,4.800
1.36E-02,4.840
1.36E-02,4.760
1.36E-02,4.760
1.36E-02,4.800
1.36E-02,4.760
1.36E-02,4.800
1.36E-02,4.760
1.36E-02,4.800
1.37E-02,4.720
1.37E-02,4.800
1.37E-02,4.800
1.37E-02,4.880
1.37E-02,4.800
1.37E-02,4.760
1.37E-02,4.800
1.37E-02,4.760
1.37E-02,4.800
1.37E-02,4.800
1.37E-02,4.840
1.37E-02,4.800
1.37E-02,4.840
1.37E-02,4.840
1.37E-02,4.760
1.37E-02,0.040
1.37E-02,0.000
1.37E-02,0.040
1.37E-02,0.000
1.37E-02,0.040
1.37E-02,0.000
1.37E-02,0.000
1.37E-02,0.040
1.37E-02,0.040
1.37E-02,0.040
1.38E-02,0.040
1.38E-02,0.040
1.38E-02,0.040
1.38E-02,0.000
1.38E-02,0.000
1.38E-02,0.040
1.38E-02,0.000
1.38E-02,0.040
1.38E-02,0.040
1.38E-02,0.040
1.38E-02,0.000
1.38E-02,0.000
1.38E-02,0.040
1.38E-02,0.040
1.38E-02,0.040
1.38E-02,0.000
1.38E-02,4.800
1.38E-02,4.800
1.38E-02,4.800
1.38E-02,4.760
1.38E-02,4.840
1.38E-02,4.800
1.38E-02,4.800
1.38E-02,4.800
1.38E-02,4.840
1.39E-02,4.800
1.39E-02,4.840
1.39E-02,4.840
1.39E-02,4.760
1.39E-02,4.760
1.39E-02,4.800
1.39E-02,4.800
1.39E-02,4.800
1.39E-02,4.840
1.39E-02,4.800
1.39E-02,4.840
1.39E-02,4.760
1.39E-02,4.800
1.39E-02,4.840
1.39E-02,4.800
1.39E-02,4.800
1.39E-02,4.800
1.39E-02,0.080
1.39E-02,0.040
1.39E-02,0.000
1.39E-02,0.000
1.39E-02,0.080
1.39E-02,0.040
1.39E-02,0.080
1.39E-02,0.000
1.40E-02,0.000
1.40E-02,0.040
1.40E-02,0.040
1.40E-02,0.000
1.40E-02,0.040
1.40E-02,0.000
1.40E-02,0.040
1.40E-02,0.040
1.40E-02,0.000
1.40E-02,0.040
1.40E-02,0.040
1.40E-02,0.000
1.40E-02,0.000
1.40E-02,0.040
1.40E-02,0.040
1.40E-02,0.040
1.40E-02,0.040
1.40E-02,4.840
1.40E-02,4.760
1.40E-02,4.800
1.40E-02,4.800
1.40E-02,4.800
1.40E-02,4.800
1.40E-02,4.800
1.40E-02,4.840
1.41E-02,4.760
1.41E-02,4.840
1.41E-02,4.760
1.41E-02,4.800
1.41E-02,4.840
1.41E-02,4.800
1.41E-02,4.720
1.41E-02,4.800
1.41E-02,4.840
1.41E-02,4.760
1.41E-02,4.720
1.41E-02,4.760
1.41E-02,4.800
1.41E-02,4.760
1.41E-02,4.760
1.41E-02,4.840
1.41E-02,4.800
1.41E-02,4.800
1.41E-02,0.040
1.41E-02,0.040
1.41E-02,0.040
1.41E-02,0.080
1.41E-02,0.040
1.41E-02,0.040
1.41E-02,0.080
1.42E-02,0.000
1.42E-02,0.000
1.42E-02,0.080
1.42E-02,0.000
1.42E-02,0.040
1.42E-02,0.000
1.42E-02,0.040
1.42E-02,0.040
1.42E-02,0.040
1.42E-02,0.000
1.42E-02,0.080
1.42E-02,0.000
1.42E-02,0.040
1.42E-02,0.000
1.42E-02,0.000
1.42E-02,0.040
1.42E-02,0.040
1.42E-02,0.040
1.42E-02,0.040
1.42E-02,4.800
1.42E-02,4.800
1.42E-02,4.800
1.42E-02,4.800
1.42E-02,4.840
1.42E-02,4.800
1.43E-02,4.840
1.43E-02,4.760
1.43E-02,4.800
1.43E-02,4.840
1.43E-02,4.800
1.43E-02,4.840
1.43E-02,4.720
1.43E-02,4.800
1.43E-02,4.760
1.43E-02,4.800
1.43E-02,4.800
1.43E-02,4.760
1.43E-02,4.800
1.43E-02,4.800
1.43E-02,4.840
1.43E-02,4.800
1.43E-02,4.760
1.43E-02,4.800
1.43E-02,4.760
1.43E-02,4.800
1.43E-02,0.040
1.43E-02,0.040
1.43E-02,0.000
1.43E-02,0.000
1.43E-02,0.040
1.44E-02,0.000
1.44E-02,0.040
1.44E-02,0.040
1.44E-02,0.000
1.44E-02,0.000
1.44E-02,0.040
1.44E-02,0.040
1.44E-02,0.000
1.44E-02,0.000
1.44E-02,0.040
1.44E-02,0.040
1.44E-02,-0.040
1.44E-02,0.000
1.44E-02,0.040
1.44E-02,0.040
1.44E-02,0.000
1.44E-02,0.000
1.44E-02,0.040
1.44E-02,0.000
1.44E-02,0.040
1.44E-02,4.800
1.44E-02,4.800
1.44E-02,4.760
1.44E-02,4.840
1.44E-02,4.800
1.45E-02,4.760
1.45E-02,4.800
1.45E-02,4.760
1.45E-02,4.800
1.45E-02,4.800
1.45E-02,4.800
1.45E-02,4.800
1.45E-02,4.840
1.45E-02,4.800
1.45E-02,4.840
1.45E-02,4.760
1.45E-02,4.800
1.45E-02,4.800
1.45E-02,4.840
1.45E-02,4.800
1.45E-02,4.840
1.45E-02,4.840
1.45E-02,4.840
1.45E-02,4.840
1.45E-02,4.840
1.45E-02,4.800
1.45E-02,0.000
1.45E-02,0.040
1.45E-02,0.040
1.45E-02,0.040
1.46E-02,0.040
1.46E-02,0.040
1.46E-02,0.000
1.46E-02,0.000
1.46E-02,0.040
1.46E-02,0.040
1.46E-02,0.000
1.46E-02,0.000
1.46E-02,0.040
1.46E-02,0.040
1.46E-02,0.000
1.46E-02,0.040
1.46E-02,0.040
1.46E-02,0.000
1.46E-02,0.000
1.46E-02,0.040
1.46E-02,0.040
1.46E-02,0.040
1.46E-02,0.040
1.46E-02,0.040
1.46E-02,0.000
1.46E-02,0.000
1.46E-02,0.040
1.46E-02,4.840
1.46E-02,4.760
1.47E-02,4.800
1.47E-02,4.840
1.47E-02,4.800
1.47E-02,4.800
1.47E-02,4.800
1.47E-02,4.800
1.47E-02,4.760
1.47E-02,4.760
1.47E-02,4.840
1.47E-02,4.800
1.47E-02,4.800
1.47E-02,4.800
1.47E-02,4.800
1.47E-02,4.800
1.47E-02,4.800
1.47E-02,4.840
1.47E-02,4.800
1.47E-02,4.840
1.47E-02,4.840
1.47E-02,4.720
1.47E-02,4.800
1.47E-02,4.800
1.47E-02,4.840
1.47E-02,4.800
1.47E-02,0.040
1.48E-02,0.000
1.48E-02,0.000
1.48E-02,0.000
1.48E-02,0.040
1.48E-02,0.040
1.48E-02,0.000
1.48E-02,0.040
1.48E-02,0.000
1.48E-02,0.040
1.48E-02,0.000
1.48E-02,0.000
1.48E-02,0.040
1.48E-02,0.000
1.48E-02,0.040
1.48E-02,0.000
1.48E-02,0.040
1.48E-02,0.040
1.48E-02,0.000
1.48E-02,0.040
1.48E-02,0.040
1.48E-02,0.000
1.48E-02,0.080
1.48E-02,0.040
1.48E-02,0.000
1.48E-02,0.040
1.49E-02,4.760
1.49E-02,4.800
1.49E-02,4.760
1.49E-02,4.800
1.49E-02,4.800
1.49E-02,4.760
1.49E-02,4.800
1.49E-02,4.800
1.49E-02,4.800
1.49E-02,4.760
1.49E-02,4.800
1.49E-02,4.800
1.49E-02,4.800
1.49E-02,4.760
1.49E-02,4.840
1.49E-02,4.800
1.49E-02,4.840
1.49E-02,4.840
1.49E-02,4.720
1.49E-02,4.800
1.49E-02,4.760
1.49E-02,4.760
1.49E-02,4.800
1.49E-02,4.760
1.49E-02,4.760
1.50E-02,4.800
1.50E-02,0.000
1.50E-02,0.040
1.50E-02,0.040
1.50E-02,0.000
1.50E-02,0.040
1.50E-02,0.040
1.50E-02,0.080
1.50E-02,0.040
1.50E-02,0.040
1.50E-02,0.040
1.50E-02,0.000
1.50E-02,0.000
1.50E-02,0.040
1.50E-02,0.040
1.50E-02,0.040
1.50E-02,0.040
1.50E-02,0.040
1.50E-02,0.040
1.50E-02,0.000
1.50E-02,0.000
1.50E-02,0.040
1.50E-02,0.040
1.50E-02,0.040
1.50E-02,0.000
1.51E-02,0.000
1.51E-02,4.840
1.51E-02,4.760
1.51E-02,4.760
1.51E-02,4.800
1.51E-02,4.840
1.51E-02,4.760
1.51E-02,4.760
1.51E-02,4.800
1.51E-02,4.800
1.51E-02,4.840
1.51E-02,4.800
1.51E-02,4.760
1.51E-02,4.800
1.51E-02,4.760
1.51E-02,4.800
1.51E-02,4.840
1.51E-02,4.840
1.51E-02,4.840
1.51E-02,4.760
1.51E-02,4.800
1.51E-02,4.840
1.51E-02,4.800
1.51E-02,4.760
1.51E-02,4.800
1.52E-02,4.760
1.52E-02,4.760
1.52E-02,-0.040
1.52E-02,0.040
1.52E-02,0.000
1.52E-02,0.000
1.52E-02,0.040
1.52E-02,0.040
1.52E-02,0.040
1.52E-02,0.040
1.52E-02,0.040
1.52E-02,0.040
1.52E-02,0.000
1.52E-02,0.040
1.52E-02,0.000
1.52E-02,0.040
1.52E-02,0.000
1.52E-02,0.040
1.52E-02,0.040
1.52E-02,0.040
1.52E-02,0.040
1.52E-02,0.040
1.52E-02,-0.040
1.52E-02,0.040
1.52E-02,-0.040
1.53E-02,0.000
1.53E-02,0.040
1.53E-02,0.000
1.53E-02,4.800
1.53E-02,4.840
1.53E-02,4.840
1.53E-02,4.800
1.53E-02,4.760
1.53E-02,4.840
1.53E-02,4.800
1.53E-02,4.840
1.53E-02,4.800
1.53E-02,4.800
1.53E-02,4.800
1.53E-02,4.800
1.53E-02,4.800
1.53E-02,4.800
1.53E-02,4.840
1.53E-02,4.800
1.53E-02,4.760
1.53E-02,4.840
1.53E-02,4.800
1.53E-02,4.760
1.53E-02,4.800
1.53E-02,4.840
1.54E-02,4.720
1.54E-02,4.760
1.54E-02,4.800
1.54E-02,4.760
1.54E-02,0.000
1.54E-02,0.040
1.54E-02,0.000
1.54E-02,0.040
1.54E-02,0.000
1.54E-02,0.000
1.54E-02,0.040
1.54E-02,0.040
1.54E-02,0.000
1.54E-02,0.040
1.54E-02,0.040
1.54E-02,0.000
1.54E-02,0.040
1.54E-02,0.040
1.54E-02,0.000
1.54E-02,0.000
1.54E-02,0.040
1.54E-02,0.080
1.54E-02,0.040
1.54E-02,0.000
1.54E-02,-0.040
1.55E-02,0.040
1.55E-02,0.000
1.55E-02,0.040
1.55E-02,0.040
1.55E-02,4.840
1.55E-02,4.800
1.55E-02,4.760
1.55E-02,4.800
1.55E-02,4.760
1.55E-02,4.760
1.55E-02,4.760
1.55E-02,4.760
1.55E-02,4.800
1.55E-02,4.840
1.55E-02,4.800
1.55E-02,4.760
1.55E-02,4.760
1.55E-02,4.800
1.55E-02,4.840
1.55E-02,4.760
1.55E-02,4.800
1.55E-02,4.800
1.55E-02,4.800
1.55E-02,4.840
1.55E-02,4.760
1.56E-02,4.840
1.56E-02,4.760
1.56E-02,4.760
1.56E-02,4.800
1.56E-02,4.720
1.56E-02,0.000
1.56E-02,0.040
1.56E-02,0.040
1.56E-02,0.040
1.56E-02,0.000
1.56E-02,0.080
1.56E-02,0.000
1.56E-02,0.040
1.56E-02,0.000
1.56E-02,0.000
1.56E-02,0.040
1.56E-02,0.000
1.56E-02,0.040
1.56E-02,0.040
1.56E-02,0.040
1.56E-02,0.040
1.56E-02,0.000
1.56E-02,0.040
1.56E-02,0.080
1.56E-02,0.040
1.57E-02,0.080
1.57E-02,0.080
1.57E-02,0.000
1.57E-02,0.040
1.57E-02,0.080
1.57E-02,0.040
1.57E-02,0.040
1.57E-02,4.840
1.57E-02,4.800
1.57E-02,4.760
1.57E-02,4.760
1.57E-02,4.800
1.57E-02,4.760
1.57E-02,4.760
1.57E-02,4.760
1.57E-02,4.800
1.57E-02,4.800
1.57E-02,4.840
1.57E-02,4.760
1.57E-02,4.840
1.57E-02,4.840
1.57E-02,4.840
1.57E-02,4.760
1.57E-02,4.800
1.57E-02,4.840
1.58E-02,4.800
1.58E-02,4.840
1.58E-02,4.840
1.58E-02,4.840
1.58E-02,4.840
1.58E-02,4.760
1.58E-02,4.760
1.58E-02,4.800
1.58E-02,0.000
1.58E-02,0.040
1.58E-02,0.080
1.58E-02,0.040
1.58E-02,0.040
1.58E-02,0.000
1.58E-02,0.040
1.58E-02,0.040
1.58E-02,0.040
1.58E-02,0.000
1.58E-02,0.040
1.58E-02,0.000
1.58E-02,0.040
1.58E-02,0.040
1.58E-02,0.000
1.58E-02,0.040
1.58E-02,0.040
1.59E-02,0.000
1.59E-02,0.040
1.59E-02,0.040
1.59E-02,0.040
1.59E-02,0.040
1.59E-02,0.000
1.59E-02,0.040
1.59E-02,0.080
1.59E-02,0.040
1.59E-02,4.800
1.59E-02,4.800
1.59E-02,4.800
1.59E-02,4.840
1.59E-02,4.800
1.59E-02,4.800
1.59E-02,4.760
1.59E-02,4.840
1.59E-02,4.800
1.59E-02,4.840
1.59E-02,4.760
1.59E-02,4.800
1.59E-02,4.840
1.59E-02,4.800
1.59E-02,4.840
1.59E-02,4.760
1.60E-02,4.840
1.60E-02,4.800
1.60E-02,4.840
1.60E-02,4.760
1.60E-02,4.800
1.60E-02,4.800
1.60E-02,4.800
1.60E-02,4.840
1.60E-02,4.800
1.60E-02,4.760
1.60E-02,0.000
1.60E-02,0.040
1.60E-02,0.000
1.60E-02,0.040
1.60E-02,0.040
1.60E-02,0.040
1.60E-02,0.040
1.60E-02,0.000
1.60E-02,0.000
1.60E-02,0.040
1.60E-02,0.040
1.60E-02,0.000
1.60E-02,0.000
1.60E-02,0.040
1.60E-02,0.000
1.61E-02,0.040
1.61E-02,0.040
1.61E-02,0.000
1.61E-02,0.000
1.61E-02,0.040
1.61E-02,0.040
1.61E-02,0.000
1.61E-02,0.000
1.61E-02,0.040
1.61E-02,0.040
1.61E-02,4.760
1.61E-02,4.800
1.61E-02,4.760
1.61E-02,4.760
1.61E-02,4.800
1.61E-02,4.800
1.61E-02,4.800
1.61E-02,4.840
1.61E-02,4.760
1.61E-02,4.840
1.61E-02,4.840
1.61E-02,4.840
1.61E-02,4.840
1.61E-02,4.760
1.61E-02,4.760
1.62E-02,4.840
1.62E-02,4.760
1.62E-02,4.800
1.62E-02,4.840
1.62E-02,4.800
1.62E-02,4.800
1.62E-02,4.840
1.62E-02,4.800
1.62E-02,4.760
1.62E-02,4.720
1.62E-02,4.800
1.62E-02,0.000
1.62E-02,0.040
1.62E-02,0.040
1.62E-02,0.080
1.62E-02,0.040
1.62E-02,0.040
1.62E-02,0.040
1.62E-02,0.000
1.62E-02,0.000
1.62E-02,0.040
1.62E-02,0.000
1.62E-02,0.040
1.62E-02,0.000
1.62E-02,0.040
1.63E-02,0.000
1.63E-02,0.000
